#  E (eV)   dos(E)     Int dos(E) EFermi =   16.089 eV
  -6.000  0.2024E+00  0.1064E+00
  -5.990  0.2008E+00  0.1084E+00
  -5.980  0.1989E+00  0.1104E+00
  -5.970  0.1968E+00  0.1124E+00
  -5.960  0.1945E+00  0.1143E+00
  -5.950  0.1919E+00  0.1163E+00
  -5.940  0.1891E+00  0.1182E+00
  -5.930  0.1860E+00  0.1200E+00
  -5.920  0.1826E+00  0.1219E+00
  -5.910  0.1791E+00  0.1237E+00
  -5.900  0.1752E+00  0.1255E+00
  -5.890  0.1712E+00  0.1272E+00
  -5.880  0.1668E+00  0.1289E+00
  -5.870  0.1623E+00  0.1305E+00
  -5.860  0.1574E+00  0.1321E+00
  -5.850  0.1524E+00  0.1337E+00
  -5.840  0.1470E+00  0.1352E+00
  -5.830  0.1415E+00  0.1366E+00
  -5.820  0.1360E+00  0.1380E+00
  -5.810  0.1366E+00  0.1394E+00
  -5.800  0.1372E+00  0.1407E+00
  -5.790  0.1378E+00  0.1421E+00
  -5.780  0.1384E+00  0.1435E+00
  -5.770  0.1390E+00  0.1449E+00
  -5.760  0.1396E+00  0.1463E+00
  -5.750  0.1402E+00  0.1477E+00
  -5.740  0.1408E+00  0.1491E+00
  -5.730  0.1414E+00  0.1505E+00
  -5.720  0.1421E+00  0.1519E+00
  -5.710  0.1427E+00  0.1533E+00
  -5.700  0.1433E+00  0.1548E+00
  -5.690  0.1439E+00  0.1562E+00
  -5.680  0.1445E+00  0.1576E+00
  -5.670  0.1451E+00  0.1591E+00
  -5.660  0.1458E+00  0.1605E+00
  -5.650  0.1464E+00  0.1620E+00
  -5.640  0.1470E+00  0.1635E+00
  -5.630  0.1477E+00  0.1649E+00
  -5.620  0.1483E+00  0.1664E+00
  -5.610  0.1489E+00  0.1679E+00
  -5.600  0.1496E+00  0.1694E+00
  -5.590  0.1502E+00  0.1709E+00
  -5.580  0.1508E+00  0.1724E+00
  -5.570  0.1515E+00  0.1739E+00
  -5.560  0.1521E+00  0.1754E+00
  -5.550  0.1528E+00  0.1770E+00
  -5.540  0.1534E+00  0.1785E+00
  -5.530  0.1540E+00  0.1800E+00
  -5.520  0.1547E+00  0.1816E+00
  -5.510  0.1553E+00  0.1831E+00
  -5.500  0.1560E+00  0.1847E+00
  -5.490  0.1567E+00  0.1862E+00
  -5.480  0.1573E+00  0.1878E+00
  -5.470  0.1580E+00  0.1894E+00
  -5.460  0.1586E+00  0.1910E+00
  -5.450  0.1593E+00  0.1926E+00
  -5.440  0.1599E+00  0.1942E+00
  -5.430  0.1606E+00  0.1958E+00
  -5.420  0.1613E+00  0.1974E+00
  -5.410  0.1619E+00  0.1990E+00
  -5.400  0.1626E+00  0.2006E+00
  -5.390  0.1633E+00  0.2022E+00
  -5.380  0.1640E+00  0.2039E+00
  -5.370  0.1646E+00  0.2055E+00
  -5.360  0.1653E+00  0.2072E+00
  -5.350  0.1660E+00  0.2088E+00
  -5.340  0.1667E+00  0.2105E+00
  -5.330  0.1674E+00  0.2121E+00
  -5.320  0.1680E+00  0.2138E+00
  -5.310  0.1687E+00  0.2155E+00
  -5.300  0.1694E+00  0.2172E+00
  -5.290  0.1701E+00  0.2189E+00
  -5.280  0.1708E+00  0.2206E+00
  -5.270  0.1715E+00  0.2223E+00
  -5.260  0.1722E+00  0.2240E+00
  -5.250  0.1729E+00  0.2258E+00
  -5.240  0.1736E+00  0.2275E+00
  -5.230  0.1743E+00  0.2292E+00
  -5.220  0.1750E+00  0.2310E+00
  -5.210  0.1757E+00  0.2327E+00
  -5.200  0.1764E+00  0.2345E+00
  -5.190  0.1771E+00  0.2363E+00
  -5.180  0.1778E+00  0.2380E+00
  -5.170  0.1785E+00  0.2398E+00
  -5.160  0.1792E+00  0.2416E+00
  -5.150  0.1799E+00  0.2434E+00
  -5.140  0.1807E+00  0.2452E+00
  -5.130  0.1814E+00  0.2470E+00
  -5.120  0.1821E+00  0.2488E+00
  -5.110  0.1828E+00  0.2507E+00
  -5.100  0.1835E+00  0.2525E+00
  -5.090  0.1843E+00  0.2543E+00
  -5.080  0.1850E+00  0.2562E+00
  -5.070  0.1857E+00  0.2580E+00
  -5.060  0.1864E+00  0.2599E+00
  -5.050  0.1872E+00  0.2618E+00
  -5.040  0.1879E+00  0.2636E+00
  -5.030  0.1886E+00  0.2655E+00
  -5.020  0.1894E+00  0.2674E+00
  -5.010  0.1901E+00  0.2693E+00
  -5.000  0.1909E+00  0.2712E+00
  -4.990  0.1916E+00  0.2731E+00
  -4.980  0.1923E+00  0.2750E+00
  -4.970  0.1931E+00  0.2770E+00
  -4.960  0.1938E+00  0.2789E+00
  -4.950  0.1946E+00  0.2808E+00
  -4.940  0.1953E+00  0.2828E+00
  -4.930  0.1961E+00  0.2847E+00
  -4.920  0.1968E+00  0.2867E+00
  -4.910  0.1976E+00  0.2887E+00
  -4.900  0.1984E+00  0.2907E+00
  -4.890  0.1991E+00  0.2926E+00
  -4.880  0.1999E+00  0.2946E+00
  -4.870  0.2006E+00  0.2966E+00
  -4.860  0.2014E+00  0.2987E+00
  -4.850  0.2022E+00  0.3007E+00
  -4.840  0.2029E+00  0.3027E+00
  -4.830  0.2037E+00  0.3047E+00
  -4.820  0.2045E+00  0.3068E+00
  -4.810  0.2052E+00  0.3088E+00
  -4.800  0.2060E+00  0.3109E+00
  -4.790  0.2068E+00  0.3129E+00
  -4.780  0.2076E+00  0.3150E+00
  -4.770  0.2084E+00  0.3171E+00
  -4.760  0.2091E+00  0.3192E+00
  -4.750  0.2099E+00  0.3213E+00
  -4.740  0.2107E+00  0.3234E+00
  -4.730  0.2115E+00  0.3255E+00
  -4.720  0.2123E+00  0.3276E+00
  -4.710  0.2131E+00  0.3297E+00
  -4.700  0.2139E+00  0.3319E+00
  -4.690  0.2147E+00  0.3340E+00
  -4.680  0.2155E+00  0.3362E+00
  -4.670  0.2163E+00  0.3383E+00
  -4.660  0.2171E+00  0.3405E+00
  -4.650  0.2179E+00  0.3427E+00
  -4.640  0.2187E+00  0.3448E+00
  -4.630  0.2195E+00  0.3470E+00
  -4.620  0.2203E+00  0.3492E+00
  -4.610  0.2211E+00  0.3514E+00
  -4.600  0.2219E+00  0.3537E+00
  -4.590  0.2227E+00  0.3559E+00
  -4.580  0.2235E+00  0.3581E+00
  -4.570  0.2243E+00  0.3604E+00
  -4.560  0.2252E+00  0.3626E+00
  -4.550  0.2260E+00  0.3649E+00
  -4.540  0.2268E+00  0.3671E+00
  -4.530  0.2276E+00  0.3694E+00
  -4.520  0.2284E+00  0.3717E+00
  -4.510  0.2293E+00  0.3740E+00
  -4.500  0.2301E+00  0.3763E+00
  -4.490  0.2309E+00  0.3786E+00
  -4.480  0.2318E+00  0.3809E+00
  -4.470  0.2326E+00  0.3832E+00
  -4.460  0.2334E+00  0.3855E+00
  -4.450  0.2343E+00  0.3879E+00
  -4.440  0.2351E+00  0.3902E+00
  -4.430  0.2359E+00  0.3926E+00
  -4.420  0.2368E+00  0.3949E+00
  -4.410  0.2376E+00  0.3973E+00
  -4.400  0.2385E+00  0.3997E+00
  -4.390  0.2393E+00  0.4021E+00
  -4.380  0.2402E+00  0.4045E+00
  -4.370  0.2410E+00  0.4069E+00
  -4.360  0.2419E+00  0.4093E+00
  -4.350  0.2427E+00  0.4117E+00
  -4.340  0.2436E+00  0.4141E+00
  -4.330  0.2444E+00  0.4166E+00
  -4.320  0.2453E+00  0.4190E+00
  -4.310  0.2462E+00  0.4215E+00
  -4.300  0.2470E+00  0.4240E+00
  -4.290  0.2479E+00  0.4264E+00
  -4.280  0.2487E+00  0.4289E+00
  -4.270  0.2496E+00  0.4314E+00
  -4.260  0.2505E+00  0.4339E+00
  -4.250  0.2514E+00  0.4364E+00
  -4.240  0.2522E+00  0.4389E+00
  -4.230  0.2531E+00  0.4415E+00
  -4.220  0.2540E+00  0.4440E+00
  -4.210  0.2549E+00  0.4465E+00
  -4.200  0.2557E+00  0.4491E+00
  -4.190  0.2566E+00  0.4517E+00
  -4.180  0.2575E+00  0.4542E+00
  -4.170  0.2584E+00  0.4568E+00
  -4.160  0.2593E+00  0.4594E+00
  -4.150  0.2602E+00  0.4620E+00
  -4.140  0.2611E+00  0.4646E+00
  -4.130  0.2620E+00  0.4672E+00
  -4.120  0.2628E+00  0.4698E+00
  -4.110  0.2637E+00  0.4725E+00
  -4.100  0.2646E+00  0.4751E+00
  -4.090  0.2655E+00  0.4778E+00
  -4.080  0.2664E+00  0.4804E+00
  -4.070  0.2673E+00  0.4831E+00
  -4.060  0.2683E+00  0.4858E+00
  -4.050  0.2692E+00  0.4885E+00
  -4.040  0.2701E+00  0.4911E+00
  -4.030  0.2710E+00  0.4939E+00
  -4.020  0.2719E+00  0.4966E+00
  -4.010  0.2728E+00  0.4993E+00
  -4.000  0.2737E+00  0.5020E+00
  -3.990  0.2746E+00  0.5048E+00
  -3.980  0.2756E+00  0.5075E+00
  -3.970  0.2765E+00  0.5103E+00
  -3.960  0.2774E+00  0.5130E+00
  -3.950  0.2783E+00  0.5158E+00
  -3.940  0.2792E+00  0.5186E+00
  -3.930  0.2802E+00  0.5214E+00
  -3.920  0.2811E+00  0.5242E+00
  -3.910  0.2820E+00  0.5270E+00
  -3.900  0.2830E+00  0.5299E+00
  -3.890  0.2839E+00  0.5327E+00
  -3.880  0.2848E+00  0.5355E+00
  -3.870  0.2858E+00  0.5384E+00
  -3.860  0.2867E+00  0.5413E+00
  -3.850  0.2877E+00  0.5441E+00
  -3.840  0.2886E+00  0.5470E+00
  -3.830  0.2895E+00  0.5499E+00
  -3.820  0.2905E+00  0.5528E+00
  -3.810  0.2914E+00  0.5557E+00
  -3.800  0.2924E+00  0.5586E+00
  -3.790  0.2933E+00  0.5616E+00
  -3.780  0.2943E+00  0.5645E+00
  -3.770  0.2953E+00  0.5674E+00
  -3.760  0.2962E+00  0.5704E+00
  -3.750  0.2972E+00  0.5734E+00
  -3.740  0.2981E+00  0.5763E+00
  -3.730  0.2991E+00  0.5793E+00
  -3.720  0.3001E+00  0.5823E+00
  -3.710  0.3010E+00  0.5853E+00
  -3.700  0.3020E+00  0.5883E+00
  -3.690  0.3030E+00  0.5914E+00
  -3.680  0.3039E+00  0.5944E+00
  -3.670  0.3049E+00  0.5974E+00
  -3.660  0.3059E+00  0.6005E+00
  -3.650  0.3069E+00  0.6036E+00
  -3.640  0.3078E+00  0.6066E+00
  -3.630  0.3088E+00  0.6097E+00
  -3.620  0.3118E+00  0.6128E+00
  -3.610  0.3158E+00  0.6160E+00
  -3.600  0.3197E+00  0.6191E+00
  -3.590  0.3237E+00  0.6224E+00
  -3.580  0.3276E+00  0.6256E+00
  -3.570  0.3314E+00  0.6289E+00
  -3.560  0.3353E+00  0.6322E+00
  -3.550  0.3391E+00  0.6356E+00
  -3.540  0.3428E+00  0.6390E+00
  -3.530  0.3466E+00  0.6425E+00
  -3.520  0.3503E+00  0.6459E+00
  -3.510  0.3540E+00  0.6495E+00
  -3.500  0.3576E+00  0.6530E+00
  -3.490  0.3612E+00  0.6566E+00
  -3.480  0.3648E+00  0.6603E+00
  -3.470  0.3684E+00  0.6639E+00
  -3.460  0.3719E+00  0.6676E+00
  -3.450  0.3754E+00  0.6714E+00
  -3.440  0.3788E+00  0.6751E+00
  -3.430  0.3823E+00  0.6789E+00
  -3.420  0.3857E+00  0.6828E+00
  -3.410  0.3890E+00  0.6866E+00
  -3.400  0.3924E+00  0.6906E+00
  -3.390  0.3957E+00  0.6945E+00
  -3.380  0.3990E+00  0.6985E+00
  -3.370  0.4022E+00  0.7025E+00
  -3.360  0.4054E+00  0.7065E+00
  -3.350  0.4086E+00  0.7106E+00
  -3.340  0.4118E+00  0.7147E+00
  -3.330  0.4149E+00  0.7188E+00
  -3.320  0.4180E+00  0.7230E+00
  -3.310  0.4211E+00  0.7272E+00
  -3.300  0.4241E+00  0.7314E+00
  -3.290  0.4271E+00  0.7357E+00
  -3.280  0.4301E+00  0.7399E+00
  -3.270  0.4330E+00  0.7443E+00
  -3.260  0.4359E+00  0.7486E+00
  -3.250  0.4388E+00  0.7530E+00
  -3.240  0.4416E+00  0.7574E+00
  -3.230  0.4445E+00  0.7618E+00
  -3.220  0.4473E+00  0.7663E+00
  -3.210  0.4500E+00  0.7708E+00
  -3.200  0.4527E+00  0.7753E+00
  -3.190  0.4554E+00  0.7798E+00
  -3.180  0.4581E+00  0.7844E+00
  -3.170  0.4607E+00  0.7890E+00
  -3.160  0.4633E+00  0.7936E+00
  -3.150  0.4659E+00  0.7982E+00
  -3.140  0.4684E+00  0.8029E+00
  -3.130  0.4710E+00  0.8076E+00
  -3.120  0.4734E+00  0.8123E+00
  -3.110  0.4759E+00  0.8171E+00
  -3.100  0.4783E+00  0.8218E+00
  -3.090  0.4807E+00  0.8266E+00
  -3.080  0.4830E+00  0.8315E+00
  -3.070  0.4854E+00  0.8363E+00
  -3.060  0.4877E+00  0.8412E+00
  -3.050  0.4899E+00  0.8461E+00
  -3.040  0.4922E+00  0.8510E+00
  -3.030  0.4944E+00  0.8559E+00
  -3.020  0.4965E+00  0.8609E+00
  -3.010  0.4987E+00  0.8658E+00
  -3.000  0.5008E+00  0.8708E+00
  -2.990  0.5029E+00  0.8758E+00
  -2.980  0.5049E+00  0.8809E+00
  -2.970  0.5069E+00  0.8859E+00
  -2.960  0.5089E+00  0.8910E+00
  -2.950  0.5109E+00  0.8961E+00
  -2.940  0.5128E+00  0.9012E+00
  -2.930  0.5147E+00  0.9064E+00
  -2.920  0.5166E+00  0.9115E+00
  -2.910  0.5184E+00  0.9167E+00
  -2.900  0.5202E+00  0.9219E+00
  -2.890  0.5220E+00  0.9271E+00
  -2.880  0.5237E+00  0.9323E+00
  -2.870  0.5254E+00  0.9376E+00
  -2.860  0.5271E+00  0.9428E+00
  -2.850  0.5288E+00  0.9481E+00
  -2.840  0.5304E+00  0.9534E+00
  -2.830  0.5320E+00  0.9587E+00
  -2.820  0.5335E+00  0.9641E+00
  -2.810  0.5350E+00  0.9694E+00
  -2.800  0.5365E+00  0.9748E+00
  -2.790  0.5380E+00  0.9801E+00
  -2.780  0.5394E+00  0.9855E+00
  -2.770  0.5408E+00  0.9909E+00
  -2.760  0.5422E+00  0.9963E+00
  -2.750  0.5436E+00  0.1002E+01
  -2.740  0.5449E+00  0.1007E+01
  -2.730  0.5461E+00  0.1013E+01
  -2.720  0.5474E+00  0.1018E+01
  -2.710  0.5486E+00  0.1024E+01
  -2.700  0.5498E+00  0.1029E+01
  -2.690  0.5510E+00  0.1035E+01
  -2.680  0.5521E+00  0.1040E+01
  -2.670  0.5532E+00  0.1046E+01
  -2.660  0.5542E+00  0.1051E+01
  -2.650  0.5553E+00  0.1057E+01
  -2.640  0.5563E+00  0.1062E+01
  -2.630  0.5573E+00  0.1068E+01
  -2.620  0.5582E+00  0.1073E+01
  -2.610  0.5591E+00  0.1079E+01
  -2.600  0.5600E+00  0.1085E+01
  -2.590  0.5608E+00  0.1090E+01
  -2.580  0.5617E+00  0.1096E+01
  -2.570  0.5624E+00  0.1101E+01
  -2.560  0.5632E+00  0.1107E+01
  -2.550  0.5639E+00  0.1113E+01
  -2.540  0.5646E+00  0.1118E+01
  -2.530  0.5653E+00  0.1124E+01
  -2.520  0.5659E+00  0.1130E+01
  -2.510  0.5665E+00  0.1135E+01
  -2.500  0.5671E+00  0.1141E+01
  -2.490  0.5676E+00  0.1147E+01
  -2.480  0.5682E+00  0.1152E+01
  -2.470  0.5686E+00  0.1158E+01
  -2.460  0.5691E+00  0.1164E+01
  -2.450  0.5695E+00  0.1169E+01
  -2.440  0.5699E+00  0.1175E+01
  -2.430  0.5703E+00  0.1181E+01
  -2.420  0.5706E+00  0.1187E+01
  -2.410  0.5709E+00  0.1192E+01
  -2.400  0.5711E+00  0.1198E+01
  -2.390  0.5714E+00  0.1204E+01
  -2.380  0.5716E+00  0.1209E+01
  -2.370  0.5718E+00  0.1215E+01
  -2.360  0.5719E+00  0.1221E+01
  -2.350  0.5720E+00  0.1227E+01
  -2.340  0.5721E+00  0.1232E+01
  -2.330  0.5721E+00  0.1238E+01
  -2.320  0.5720E+00  0.1244E+01
  -2.310  0.5715E+00  0.1249E+01
  -2.300  0.5706E+00  0.1255E+01
  -2.290  0.5692E+00  0.1261E+01
  -2.280  0.5674E+00  0.1266E+01
  -2.270  0.5653E+00  0.1272E+01
  -2.260  0.5627E+00  0.1278E+01
  -2.250  0.5597E+00  0.1283E+01
  -2.240  0.5563E+00  0.1289E+01
  -2.230  0.5525E+00  0.1295E+01
  -2.220  0.5483E+00  0.1300E+01
  -2.210  0.5437E+00  0.1306E+01
  -2.200  0.5387E+00  0.1311E+01
  -2.190  0.5332E+00  0.1316E+01
  -2.180  0.5274E+00  0.1322E+01
  -2.170  0.5211E+00  0.1327E+01
  -2.160  0.5144E+00  0.1332E+01
  -2.150  0.5074E+00  0.1337E+01
  -2.140  0.4999E+00  0.1342E+01
  -2.130  0.4920E+00  0.1347E+01
  -2.120  0.4837E+00  0.1352E+01
  -2.110  0.4750E+00  0.1357E+01
  -2.100  0.4658E+00  0.1361E+01
  -2.090  0.4563E+00  0.1366E+01
  -2.080  0.4464E+00  0.1371E+01
  -2.070  0.4360E+00  0.1375E+01
  -2.060  0.4298E+00  0.1379E+01
  -2.050  0.4280E+00  0.1384E+01
  -2.040  0.4262E+00  0.1388E+01
  -2.030  0.4244E+00  0.1392E+01
  -2.020  0.4226E+00  0.1396E+01
  -2.010  0.4208E+00  0.1401E+01
  -2.000  0.4190E+00  0.1405E+01
  -1.990  0.4172E+00  0.1409E+01
  -1.980  0.4154E+00  0.1413E+01
  -1.970  0.4137E+00  0.1417E+01
  -1.960  0.4119E+00  0.1421E+01
  -1.950  0.4101E+00  0.1426E+01
  -1.940  0.4083E+00  0.1430E+01
  -1.930  0.4065E+00  0.1434E+01
  -1.920  0.4048E+00  0.1438E+01
  -1.910  0.4030E+00  0.1442E+01
  -1.900  0.4012E+00  0.1446E+01
  -1.890  0.3995E+00  0.1450E+01
  -1.880  0.3977E+00  0.1454E+01
  -1.870  0.3960E+00  0.1458E+01
  -1.860  0.3942E+00  0.1462E+01
  -1.850  0.3925E+00  0.1466E+01
  -1.840  0.3907E+00  0.1470E+01
  -1.830  0.3890E+00  0.1473E+01
  -1.820  0.3872E+00  0.1477E+01
  -1.810  0.3855E+00  0.1481E+01
  -1.800  0.3838E+00  0.1485E+01
  -1.790  0.3820E+00  0.1489E+01
  -1.780  0.3803E+00  0.1493E+01
  -1.770  0.3786E+00  0.1496E+01
  -1.760  0.3769E+00  0.1500E+01
  -1.750  0.3752E+00  0.1504E+01
  -1.740  0.3734E+00  0.1508E+01
  -1.730  0.3717E+00  0.1512E+01
  -1.720  0.3700E+00  0.1515E+01
  -1.710  0.3683E+00  0.1519E+01
  -1.700  0.3666E+00  0.1523E+01
  -1.690  0.3649E+00  0.1526E+01
  -1.680  0.3632E+00  0.1530E+01
  -1.670  0.3615E+00  0.1533E+01
  -1.660  0.3598E+00  0.1537E+01
  -1.650  0.3582E+00  0.1541E+01
  -1.640  0.3565E+00  0.1544E+01
  -1.630  0.3548E+00  0.1548E+01
  -1.620  0.3531E+00  0.1551E+01
  -1.610  0.3514E+00  0.1555E+01
  -1.600  0.3498E+00  0.1558E+01
  -1.590  0.3481E+00  0.1562E+01
  -1.580  0.3464E+00  0.1565E+01
  -1.570  0.3448E+00  0.1569E+01
  -1.560  0.3431E+00  0.1572E+01
  -1.550  0.3415E+00  0.1576E+01
  -1.540  0.3398E+00  0.1579E+01
  -1.530  0.3382E+00  0.1582E+01
  -1.520  0.3365E+00  0.1586E+01
  -1.510  0.3349E+00  0.1589E+01
  -1.500  0.3332E+00  0.1593E+01
  -1.490  0.3316E+00  0.1596E+01
  -1.480  0.3300E+00  0.1599E+01
  -1.470  0.3283E+00  0.1602E+01
  -1.460  0.3267E+00  0.1606E+01
  -1.450  0.3251E+00  0.1609E+01
  -1.440  0.3235E+00  0.1612E+01
  -1.430  0.3218E+00  0.1615E+01
  -1.420  0.3202E+00  0.1619E+01
  -1.410  0.3186E+00  0.1622E+01
  -1.400  0.3170E+00  0.1625E+01
  -1.390  0.3154E+00  0.1628E+01
  -1.380  0.3138E+00  0.1631E+01
  -1.370  0.3122E+00  0.1634E+01
  -1.360  0.3106E+00  0.1638E+01
  -1.350  0.3090E+00  0.1641E+01
  -1.340  0.3074E+00  0.1644E+01
  -1.330  0.3058E+00  0.1647E+01
  -1.320  0.3043E+00  0.1650E+01
  -1.310  0.3027E+00  0.1653E+01
  -1.300  0.3011E+00  0.1656E+01
  -1.290  0.2995E+00  0.1659E+01
  -1.280  0.2980E+00  0.1662E+01
  -1.270  0.2964E+00  0.1665E+01
  -1.260  0.2948E+00  0.1668E+01
  -1.250  0.2933E+00  0.1671E+01
  -1.240  0.2917E+00  0.1674E+01
  -1.230  0.2902E+00  0.1677E+01
  -1.220  0.2886E+00  0.1680E+01
  -1.210  0.2870E+00  0.1682E+01
  -1.200  0.2855E+00  0.1685E+01
  -1.190  0.2840E+00  0.1688E+01
  -1.180  0.2824E+00  0.1691E+01
  -1.170  0.2809E+00  0.1694E+01
  -1.160  0.2794E+00  0.1697E+01
  -1.150  0.2778E+00  0.1699E+01
  -1.140  0.2763E+00  0.1702E+01
  -1.130  0.2748E+00  0.1705E+01
  -1.120  0.2733E+00  0.1708E+01
  -1.110  0.2717E+00  0.1710E+01
  -1.100  0.2702E+00  0.1713E+01
  -1.090  0.2687E+00  0.1716E+01
  -1.080  0.2672E+00  0.1718E+01
  -1.070  0.2657E+00  0.1721E+01
  -1.060  0.2642E+00  0.1724E+01
  -1.050  0.2627E+00  0.1726E+01
  -1.040  0.2612E+00  0.1729E+01
  -1.030  0.2597E+00  0.1732E+01
  -1.020  0.2582E+00  0.1734E+01
  -1.010  0.2567E+00  0.1737E+01
  -1.000  0.2552E+00  0.1739E+01
  -0.990  0.2538E+00  0.1742E+01
  -0.980  0.2523E+00  0.1744E+01
  -0.970  0.2508E+00  0.1747E+01
  -0.960  0.2493E+00  0.1749E+01
  -0.950  0.2479E+00  0.1752E+01
  -0.940  0.2464E+00  0.1754E+01
  -0.930  0.2449E+00  0.1757E+01
  -0.920  0.2435E+00  0.1759E+01
  -0.910  0.2420E+00  0.1762E+01
  -0.900  0.2406E+00  0.1764E+01
  -0.890  0.2391E+00  0.1767E+01
  -0.880  0.2377E+00  0.1769E+01
  -0.870  0.2362E+00  0.1771E+01
  -0.860  0.2348E+00  0.1774E+01
  -0.850  0.2334E+00  0.1776E+01
  -0.840  0.2319E+00  0.1778E+01
  -0.830  0.2305E+00  0.1781E+01
  -0.820  0.2291E+00  0.1783E+01
  -0.810  0.2277E+00  0.1785E+01
  -0.800  0.2262E+00  0.1787E+01
  -0.790  0.2248E+00  0.1790E+01
  -0.780  0.2234E+00  0.1792E+01
  -0.770  0.2220E+00  0.1794E+01
  -0.760  0.2206E+00  0.1796E+01
  -0.750  0.2192E+00  0.1799E+01
  -0.740  0.2178E+00  0.1801E+01
  -0.730  0.2164E+00  0.1803E+01
  -0.720  0.2150E+00  0.1805E+01
  -0.710  0.2136E+00  0.1807E+01
  -0.700  0.2122E+00  0.1809E+01
  -0.690  0.2108E+00  0.1811E+01
  -0.680  0.2094E+00  0.1814E+01
  -0.670  0.2080E+00  0.1816E+01
  -0.660  0.2067E+00  0.1818E+01
  -0.650  0.2053E+00  0.1820E+01
  -0.640  0.2039E+00  0.1822E+01
  -0.630  0.2026E+00  0.1824E+01
  -0.620  0.2012E+00  0.1826E+01
  -0.610  0.1998E+00  0.1828E+01
  -0.600  0.1985E+00  0.1830E+01
  -0.590  0.1971E+00  0.1832E+01
  -0.580  0.1958E+00  0.1834E+01
  -0.570  0.1944E+00  0.1836E+01
  -0.560  0.1931E+00  0.1838E+01
  -0.550  0.1917E+00  0.1840E+01
  -0.540  0.1904E+00  0.1842E+01
  -0.530  0.1890E+00  0.1843E+01
  -0.520  0.1877E+00  0.1845E+01
  -0.510  0.1864E+00  0.1847E+01
  -0.500  0.1851E+00  0.1849E+01
  -0.490  0.1837E+00  0.1851E+01
  -0.480  0.1824E+00  0.1853E+01
  -0.470  0.1811E+00  0.1855E+01
  -0.460  0.1798E+00  0.1856E+01
  -0.450  0.1785E+00  0.1858E+01
  -0.440  0.1772E+00  0.1860E+01
  -0.430  0.1758E+00  0.1862E+01
  -0.420  0.1745E+00  0.1863E+01
  -0.410  0.1732E+00  0.1865E+01
  -0.400  0.1719E+00  0.1867E+01
  -0.390  0.1707E+00  0.1869E+01
  -0.380  0.1694E+00  0.1870E+01
  -0.370  0.1681E+00  0.1872E+01
  -0.360  0.1668E+00  0.1874E+01
  -0.350  0.1655E+00  0.1875E+01
  -0.340  0.1642E+00  0.1877E+01
  -0.330  0.1630E+00  0.1879E+01
  -0.320  0.1617E+00  0.1880E+01
  -0.310  0.1604E+00  0.1882E+01
  -0.300  0.1592E+00  0.1883E+01
  -0.290  0.1579E+00  0.1885E+01
  -0.280  0.1566E+00  0.1887E+01
  -0.270  0.1554E+00  0.1888E+01
  -0.260  0.1541E+00  0.1890E+01
  -0.250  0.1529E+00  0.1891E+01
  -0.240  0.1516E+00  0.1893E+01
  -0.230  0.1504E+00  0.1894E+01
  -0.220  0.1492E+00  0.1896E+01
  -0.210  0.1479E+00  0.1897E+01
  -0.200  0.1467E+00  0.1899E+01
  -0.190  0.1454E+00  0.1900E+01
  -0.180  0.1442E+00  0.1902E+01
  -0.170  0.1430E+00  0.1903E+01
  -0.160  0.1418E+00  0.1905E+01
  -0.150  0.1406E+00  0.1906E+01
  -0.140  0.1393E+00  0.1907E+01
  -0.130  0.1381E+00  0.1909E+01
  -0.120  0.1369E+00  0.1910E+01
  -0.110  0.1357E+00  0.1911E+01
  -0.100  0.1345E+00  0.1913E+01
  -0.090  0.1333E+00  0.1914E+01
  -0.080  0.1321E+00  0.1915E+01
  -0.070  0.1309E+00  0.1917E+01
  -0.060  0.1297E+00  0.1918E+01
  -0.050  0.1285E+00  0.1919E+01
  -0.040  0.1274E+00  0.1921E+01
  -0.030  0.1262E+00  0.1922E+01
  -0.020  0.1250E+00  0.1923E+01
  -0.010  0.1238E+00  0.1924E+01
  -0.000  0.1227E+00  0.1926E+01
   0.010  0.1215E+00  0.1927E+01
   0.020  0.1203E+00  0.1928E+01
   0.030  0.1192E+00  0.1929E+01
   0.040  0.1180E+00  0.1931E+01
   0.050  0.1169E+00  0.1932E+01
   0.060  0.1157E+00  0.1933E+01
   0.070  0.1146E+00  0.1934E+01
   0.080  0.1135E+00  0.1935E+01
   0.090  0.1125E+00  0.1936E+01
   0.100  0.1114E+00  0.1937E+01
   0.110  0.1103E+00  0.1938E+01
   0.120  0.1093E+00  0.1940E+01
   0.130  0.1083E+00  0.1941E+01
   0.140  0.1073E+00  0.1942E+01
   0.150  0.1063E+00  0.1943E+01
   0.160  0.1053E+00  0.1944E+01
   0.170  0.1044E+00  0.1945E+01
   0.180  0.1034E+00  0.1946E+01
   0.190  0.1025E+00  0.1947E+01
   0.200  0.1016E+00  0.1948E+01
   0.210  0.1007E+00  0.1949E+01
   0.220  0.9983E-01  0.1950E+01
   0.230  0.9897E-01  0.1951E+01
   0.240  0.9812E-01  0.1952E+01
   0.250  0.9728E-01  0.1953E+01
   0.260  0.9647E-01  0.1954E+01
   0.270  0.9566E-01  0.1955E+01
   0.280  0.9488E-01  0.1956E+01
   0.290  0.9410E-01  0.1957E+01
   0.300  0.9335E-01  0.1958E+01
   0.310  0.9261E-01  0.1959E+01
   0.320  0.9188E-01  0.1960E+01
   0.330  0.9117E-01  0.1961E+01
   0.340  0.9048E-01  0.1961E+01
   0.350  0.8980E-01  0.1962E+01
   0.360  0.8913E-01  0.1963E+01
   0.370  0.8848E-01  0.1964E+01
   0.380  0.8785E-01  0.1965E+01
   0.390  0.8723E-01  0.1966E+01
   0.400  0.8663E-01  0.1967E+01
   0.410  0.8604E-01  0.1968E+01
   0.420  0.8547E-01  0.1968E+01
   0.430  0.8491E-01  0.1969E+01
   0.440  0.8437E-01  0.1970E+01
   0.450  0.8385E-01  0.1971E+01
   0.460  0.8334E-01  0.1972E+01
   0.470  0.8284E-01  0.1973E+01
   0.480  0.8236E-01  0.1973E+01
   0.490  0.8190E-01  0.1974E+01
   0.500  0.8145E-01  0.1975E+01
   0.510  0.8101E-01  0.1976E+01
   0.520  0.8060E-01  0.1977E+01
   0.530  0.8019E-01  0.1978E+01
   0.540  0.7981E-01  0.1978E+01
   0.550  0.7943E-01  0.1979E+01
   0.560  0.7908E-01  0.1980E+01
   0.570  0.7873E-01  0.1981E+01
   0.580  0.7841E-01  0.1982E+01
   0.590  0.7810E-01  0.1982E+01
   0.600  0.7780E-01  0.1983E+01
   0.610  0.7752E-01  0.1984E+01
   0.620  0.7726E-01  0.1985E+01
   0.630  0.7701E-01  0.1985E+01
   0.640  0.7678E-01  0.1986E+01
   0.650  0.7658E-01  0.1987E+01
   0.660  0.7643E-01  0.1988E+01
   0.670  0.7632E-01  0.1988E+01
   0.680  0.7626E-01  0.1989E+01
   0.690  0.7624E-01  0.1990E+01
   0.700  0.7627E-01  0.1991E+01
   0.710  0.7634E-01  0.1992E+01
   0.720  0.7646E-01  0.1992E+01
   0.730  0.7662E-01  0.1993E+01
   0.740  0.7682E-01  0.1994E+01
   0.750  0.7707E-01  0.1995E+01
   0.760  0.7736E-01  0.1995E+01
   0.770  0.7770E-01  0.1996E+01
   0.780  0.7808E-01  0.1997E+01
   0.790  0.7850E-01  0.1998E+01
   0.800  0.7897E-01  0.1998E+01
   0.810  0.7949E-01  0.1999E+01
   0.820  0.8005E-01  0.2000E+01
   0.830  0.8065E-01  0.2001E+01
   0.840  0.8130E-01  0.2002E+01
   0.850  0.8199E-01  0.2002E+01
   0.860  0.8272E-01  0.2003E+01
   0.870  0.8350E-01  0.2004E+01
   0.880  0.8433E-01  0.2005E+01
   0.890  0.8519E-01  0.2006E+01
   0.900  0.8611E-01  0.2007E+01
   0.910  0.8706E-01  0.2008E+01
   0.920  0.8807E-01  0.2008E+01
   0.930  0.8911E-01  0.2009E+01
   0.940  0.9020E-01  0.2010E+01
   0.950  0.9133E-01  0.2011E+01
   0.960  0.9251E-01  0.2012E+01
   0.970  0.9374E-01  0.2013E+01
   0.980  0.9500E-01  0.2014E+01
   0.990  0.9631E-01  0.2015E+01
   1.000  0.9767E-01  0.2016E+01
   1.010  0.9907E-01  0.2017E+01
   1.020  0.1005E+00  0.2018E+01
   1.030  0.1020E+00  0.2019E+01
   1.040  0.1035E+00  0.2020E+01
   1.050  0.1051E+00  0.2021E+01
   1.060  0.1067E+00  0.2022E+01
   1.070  0.1084E+00  0.2023E+01
   1.080  0.1101E+00  0.2024E+01
   1.090  0.1119E+00  0.2025E+01
   1.100  0.1137E+00  0.2026E+01
   1.110  0.1155E+00  0.2028E+01
   1.120  0.1174E+00  0.2029E+01
   1.130  0.1193E+00  0.2030E+01
   1.140  0.1213E+00  0.2031E+01
   1.150  0.1233E+00  0.2032E+01
   1.160  0.1254E+00  0.2034E+01
   1.170  0.1275E+00  0.2035E+01
   1.180  0.1296E+00  0.2036E+01
   1.190  0.1318E+00  0.2037E+01
   1.200  0.1341E+00  0.2039E+01
   1.210  0.1364E+00  0.2040E+01
   1.220  0.1387E+00  0.2041E+01
   1.230  0.1411E+00  0.2043E+01
   1.240  0.1435E+00  0.2044E+01
   1.250  0.1460E+00  0.2046E+01
   1.260  0.1485E+00  0.2047E+01
   1.270  0.1510E+00  0.2049E+01
   1.280  0.1536E+00  0.2050E+01
   1.290  0.1563E+00  0.2052E+01
   1.300  0.1589E+00  0.2053E+01
   1.310  0.1617E+00  0.2055E+01
   1.320  0.1644E+00  0.2057E+01
   1.330  0.1673E+00  0.2058E+01
   1.340  0.1701E+00  0.2060E+01
   1.350  0.1730E+00  0.2062E+01
   1.360  0.1760E+00  0.2063E+01
   1.370  0.1790E+00  0.2065E+01
   1.380  0.1820E+00  0.2067E+01
   1.390  0.1851E+00  0.2069E+01
   1.400  0.1882E+00  0.2071E+01
   1.410  0.1914E+00  0.2073E+01
   1.420  0.1946E+00  0.2074E+01
   1.430  0.1996E+00  0.2076E+01
   1.440  0.2067E+00  0.2078E+01
   1.450  0.2137E+00  0.2081E+01
   1.460  0.2207E+00  0.2083E+01
   1.470  0.2275E+00  0.2085E+01
   1.480  0.2343E+00  0.2087E+01
   1.490  0.2410E+00  0.2090E+01
   1.500  0.2476E+00  0.2092E+01
   1.510  0.2542E+00  0.2095E+01
   1.520  0.2606E+00  0.2097E+01
   1.530  0.2670E+00  0.2100E+01
   1.540  0.2733E+00  0.2103E+01
   1.550  0.2795E+00  0.2105E+01
   1.560  0.2856E+00  0.2108E+01
   1.570  0.2916E+00  0.2111E+01
   1.580  0.2976E+00  0.2114E+01
   1.590  0.3035E+00  0.2117E+01
   1.600  0.3093E+00  0.2120E+01
   1.610  0.3150E+00  0.2123E+01
   1.620  0.3206E+00  0.2126E+01
   1.630  0.3262E+00  0.2130E+01
   1.640  0.3316E+00  0.2133E+01
   1.650  0.3370E+00  0.2136E+01
   1.660  0.3423E+00  0.2140E+01
   1.670  0.3475E+00  0.2143E+01
   1.680  0.3527E+00  0.2147E+01
   1.690  0.3577E+00  0.2150E+01
   1.700  0.3627E+00  0.2154E+01
   1.710  0.3676E+00  0.2157E+01
   1.720  0.3724E+00  0.2161E+01
   1.730  0.3771E+00  0.2165E+01
   1.740  0.3818E+00  0.2169E+01
   1.750  0.3863E+00  0.2172E+01
   1.760  0.3908E+00  0.2176E+01
   1.770  0.3952E+00  0.2180E+01
   1.780  0.3995E+00  0.2184E+01
   1.790  0.4038E+00  0.2188E+01
   1.800  0.4079E+00  0.2192E+01
   1.810  0.4120E+00  0.2196E+01
   1.820  0.4160E+00  0.2201E+01
   1.830  0.4199E+00  0.2205E+01
   1.840  0.4237E+00  0.2209E+01
   1.850  0.4275E+00  0.2213E+01
   1.860  0.4311E+00  0.2218E+01
   1.870  0.4347E+00  0.2222E+01
   1.880  0.4382E+00  0.2226E+01
   1.890  0.4416E+00  0.2231E+01
   1.900  0.4449E+00  0.2235E+01
   1.910  0.4482E+00  0.2239E+01
   1.920  0.4514E+00  0.2244E+01
   1.930  0.4544E+00  0.2249E+01
   1.940  0.4575E+00  0.2253E+01
   1.950  0.4604E+00  0.2258E+01
   1.960  0.4632E+00  0.2262E+01
   1.970  0.4660E+00  0.2267E+01
   1.980  0.4686E+00  0.2272E+01
   1.990  0.4712E+00  0.2276E+01
   2.000  0.4738E+00  0.2281E+01
   2.010  0.4762E+00  0.2286E+01
   2.020  0.4785E+00  0.2291E+01
   2.030  0.4808E+00  0.2295E+01
   2.040  0.4830E+00  0.2300E+01
   2.050  0.4851E+00  0.2305E+01
   2.060  0.4871E+00  0.2310E+01
   2.070  0.4890E+00  0.2315E+01
   2.080  0.4909E+00  0.2320E+01
   2.090  0.4927E+00  0.2325E+01
   2.100  0.4944E+00  0.2330E+01
   2.110  0.4960E+00  0.2334E+01
   2.120  0.4975E+00  0.2339E+01
   2.130  0.4989E+00  0.2344E+01
   2.140  0.5003E+00  0.2349E+01
   2.150  0.5016E+00  0.2354E+01
   2.160  0.5028E+00  0.2359E+01
   2.170  0.5039E+00  0.2364E+01
   2.180  0.5049E+00  0.2370E+01
   2.190  0.5059E+00  0.2375E+01
   2.200  0.5068E+00  0.2380E+01
   2.210  0.5076E+00  0.2385E+01
   2.220  0.5083E+00  0.2390E+01
   2.230  0.5089E+00  0.2395E+01
   2.240  0.5094E+00  0.2400E+01
   2.250  0.5099E+00  0.2405E+01
   2.260  0.5103E+00  0.2410E+01
   2.270  0.5106E+00  0.2415E+01
   2.280  0.5108E+00  0.2420E+01
   2.290  0.5109E+00  0.2425E+01
   2.300  0.5110E+00  0.2431E+01
   2.310  0.5109E+00  0.2436E+01
   2.320  0.5108E+00  0.2441E+01
   2.330  0.5106E+00  0.2446E+01
   2.340  0.5104E+00  0.2451E+01
   2.350  0.5100E+00  0.2456E+01
   2.360  0.5096E+00  0.2461E+01
   2.370  0.5090E+00  0.2466E+01
   2.380  0.5084E+00  0.2471E+01
   2.390  0.5077E+00  0.2476E+01
   2.400  0.5070E+00  0.2482E+01
   2.410  0.5061E+00  0.2487E+01
   2.420  0.5052E+00  0.2492E+01
   2.430  0.5042E+00  0.2497E+01
   2.440  0.5031E+00  0.2502E+01
   2.450  0.5019E+00  0.2507E+01
   2.460  0.5006E+00  0.2512E+01
   2.470  0.4993E+00  0.2517E+01
   2.480  0.4979E+00  0.2522E+01
   2.490  0.4963E+00  0.2527E+01
   2.500  0.4948E+00  0.2532E+01
   2.510  0.4931E+00  0.2537E+01
   2.520  0.4913E+00  0.2542E+01
   2.530  0.4895E+00  0.2546E+01
   2.540  0.4876E+00  0.2551E+01
   2.550  0.4856E+00  0.2556E+01
   2.560  0.4835E+00  0.2561E+01
   2.570  0.4813E+00  0.2566E+01
   2.580  0.4791E+00  0.2571E+01
   2.590  0.4767E+00  0.2575E+01
   2.600  0.4743E+00  0.2580E+01
   2.610  0.4718E+00  0.2585E+01
   2.620  0.4696E+00  0.2590E+01
   2.630  0.4696E+00  0.2594E+01
   2.640  0.4696E+00  0.2599E+01
   2.650  0.4696E+00  0.2604E+01
   2.660  0.4696E+00  0.2608E+01
   2.670  0.4696E+00  0.2613E+01
   2.680  0.4696E+00  0.2618E+01
   2.690  0.4696E+00  0.2623E+01
   2.700  0.4696E+00  0.2627E+01
   2.710  0.4695E+00  0.2632E+01
   2.720  0.4695E+00  0.2637E+01
   2.730  0.4694E+00  0.2641E+01
   2.740  0.4693E+00  0.2646E+01
   2.750  0.4692E+00  0.2651E+01
   2.760  0.4691E+00  0.2655E+01
   2.770  0.4690E+00  0.2660E+01
   2.780  0.4689E+00  0.2665E+01
   2.790  0.4688E+00  0.2669E+01
   2.800  0.4686E+00  0.2674E+01
   2.810  0.4685E+00  0.2679E+01
   2.820  0.4683E+00  0.2684E+01
   2.830  0.4682E+00  0.2688E+01
   2.840  0.4680E+00  0.2693E+01
   2.850  0.4678E+00  0.2698E+01
   2.860  0.4676E+00  0.2702E+01
   2.870  0.4674E+00  0.2707E+01
   2.880  0.4672E+00  0.2712E+01
   2.890  0.4669E+00  0.2716E+01
   2.900  0.4667E+00  0.2721E+01
   2.910  0.4664E+00  0.2726E+01
   2.920  0.4662E+00  0.2730E+01
   2.930  0.4659E+00  0.2735E+01
   2.940  0.4656E+00  0.2740E+01
   2.950  0.4653E+00  0.2744E+01
   2.960  0.4650E+00  0.2749E+01
   2.970  0.4647E+00  0.2754E+01
   2.980  0.4644E+00  0.2758E+01
   2.990  0.4641E+00  0.2763E+01
   3.000  0.4637E+00  0.2767E+01
   3.010  0.4634E+00  0.2772E+01
   3.020  0.4630E+00  0.2777E+01
   3.030  0.4626E+00  0.2781E+01
   3.040  0.4622E+00  0.2786E+01
   3.050  0.4619E+00  0.2791E+01
   3.060  0.4614E+00  0.2795E+01
   3.070  0.4610E+00  0.2800E+01
   3.080  0.4606E+00  0.2804E+01
   3.090  0.4602E+00  0.2809E+01
   3.100  0.4597E+00  0.2814E+01
   3.110  0.4593E+00  0.2818E+01
   3.120  0.4588E+00  0.2823E+01
   3.130  0.4583E+00  0.2827E+01
   3.140  0.4579E+00  0.2832E+01
   3.150  0.4574E+00  0.2837E+01
   3.160  0.4569E+00  0.2841E+01
   3.170  0.4563E+00  0.2846E+01
   3.180  0.4558E+00  0.2850E+01
   3.190  0.4553E+00  0.2855E+01
   3.200  0.4547E+00  0.2859E+01
   3.210  0.4542E+00  0.2864E+01
   3.220  0.4536E+00  0.2868E+01
   3.230  0.4530E+00  0.2873E+01
   3.240  0.4524E+00  0.2878E+01
   3.250  0.4518E+00  0.2882E+01
   3.260  0.4512E+00  0.2887E+01
   3.270  0.4506E+00  0.2891E+01
   3.280  0.4500E+00  0.2896E+01
   3.290  0.4494E+00  0.2900E+01
   3.300  0.4487E+00  0.2905E+01
   3.310  0.4480E+00  0.2909E+01
   3.320  0.4474E+00  0.2914E+01
   3.330  0.4467E+00  0.2918E+01
   3.340  0.4460E+00  0.2922E+01
   3.350  0.4453E+00  0.2927E+01
   3.360  0.4446E+00  0.2931E+01
   3.370  0.4439E+00  0.2936E+01
   3.380  0.4432E+00  0.2940E+01
   3.390  0.4424E+00  0.2945E+01
   3.400  0.4417E+00  0.2949E+01
   3.410  0.4409E+00  0.2953E+01
   3.420  0.4401E+00  0.2958E+01
   3.430  0.4394E+00  0.2962E+01
   3.440  0.4386E+00  0.2967E+01
   3.450  0.4378E+00  0.2971E+01
   3.460  0.4370E+00  0.2975E+01
   3.470  0.4361E+00  0.2980E+01
   3.480  0.4353E+00  0.2984E+01
   3.490  0.4345E+00  0.2989E+01
   3.500  0.4336E+00  0.2993E+01
   3.510  0.4327E+00  0.2997E+01
   3.520  0.4319E+00  0.3002E+01
   3.530  0.4310E+00  0.3006E+01
   3.540  0.4301E+00  0.3010E+01
   3.550  0.4292E+00  0.3014E+01
   3.560  0.4283E+00  0.3019E+01
   3.570  0.4274E+00  0.3023E+01
   3.580  0.4264E+00  0.3027E+01
   3.590  0.4255E+00  0.3032E+01
   3.600  0.4245E+00  0.3036E+01
   3.610  0.4236E+00  0.3040E+01
   3.620  0.4226E+00  0.3044E+01
   3.630  0.4216E+00  0.3048E+01
   3.640  0.4206E+00  0.3053E+01
   3.650  0.4196E+00  0.3057E+01
   3.660  0.4186E+00  0.3061E+01
   3.670  0.4176E+00  0.3065E+01
   3.680  0.4165E+00  0.3069E+01
   3.690  0.4155E+00  0.3074E+01
   3.700  0.4144E+00  0.3078E+01
   3.710  0.4134E+00  0.3082E+01
   3.720  0.4123E+00  0.3086E+01
   3.730  0.4112E+00  0.3090E+01
   3.740  0.4101E+00  0.3094E+01
   3.750  0.4090E+00  0.3098E+01
   3.760  0.4079E+00  0.3102E+01
   3.770  0.4068E+00  0.3106E+01
   3.780  0.4056E+00  0.3111E+01
   3.790  0.4045E+00  0.3115E+01
   3.800  0.4033E+00  0.3119E+01
   3.810  0.4021E+00  0.3123E+01
   3.820  0.4010E+00  0.3127E+01
   3.830  0.3998E+00  0.3131E+01
   3.840  0.3986E+00  0.3135E+01
   3.850  0.3974E+00  0.3139E+01
   3.860  0.3962E+00  0.3143E+01
   3.870  0.3949E+00  0.3147E+01
   3.880  0.3937E+00  0.3150E+01
   3.890  0.3924E+00  0.3154E+01
   3.900  0.3912E+00  0.3158E+01
   3.910  0.3899E+00  0.3162E+01
   3.920  0.3886E+00  0.3166E+01
   3.930  0.3873E+00  0.3170E+01
   3.940  0.3860E+00  0.3174E+01
   3.950  0.3847E+00  0.3178E+01
   3.960  0.3834E+00  0.3182E+01
   3.970  0.3821E+00  0.3185E+01
   3.980  0.3807E+00  0.3189E+01
   3.990  0.3794E+00  0.3193E+01
   4.000  0.3780E+00  0.3197E+01
   4.010  0.3767E+00  0.3201E+01
   4.020  0.3753E+00  0.3204E+01
   4.030  0.3739E+00  0.3208E+01
   4.040  0.3725E+00  0.3212E+01
   4.050  0.3711E+00  0.3216E+01
   4.060  0.3696E+00  0.3219E+01
   4.070  0.3682E+00  0.3223E+01
   4.080  0.3668E+00  0.3227E+01
   4.090  0.3653E+00  0.3230E+01
   4.100  0.3639E+00  0.3234E+01
   4.110  0.3624E+00  0.3238E+01
   4.120  0.3609E+00  0.3241E+01
   4.130  0.3594E+00  0.3245E+01
   4.140  0.3579E+00  0.3248E+01
   4.150  0.3564E+00  0.3252E+01
   4.160  0.3549E+00  0.3255E+01
   4.170  0.3533E+00  0.3259E+01
   4.180  0.3518E+00  0.3263E+01
   4.190  0.3502E+00  0.3266E+01
   4.200  0.3487E+00  0.3270E+01
   4.210  0.3471E+00  0.3273E+01
   4.220  0.3455E+00  0.3276E+01
   4.230  0.3439E+00  0.3280E+01
   4.240  0.3423E+00  0.3283E+01
   4.250  0.3407E+00  0.3287E+01
   4.260  0.3391E+00  0.3290E+01
   4.270  0.3374E+00  0.3294E+01
   4.280  0.3358E+00  0.3297E+01
   4.290  0.3341E+00  0.3300E+01
   4.300  0.3324E+00  0.3304E+01
   4.310  0.3308E+00  0.3307E+01
   4.320  0.3291E+00  0.3310E+01
   4.330  0.3274E+00  0.3314E+01
   4.340  0.3257E+00  0.3317E+01
   4.350  0.3240E+00  0.3320E+01
   4.360  0.3222E+00  0.3323E+01
   4.370  0.3205E+00  0.3326E+01
   4.380  0.3187E+00  0.3330E+01
   4.390  0.3170E+00  0.3333E+01
   4.400  0.3152E+00  0.3336E+01
   4.410  0.3134E+00  0.3339E+01
   4.420  0.3116E+00  0.3342E+01
   4.430  0.3098E+00  0.3345E+01
   4.440  0.3080E+00  0.3348E+01
   4.450  0.3062E+00  0.3352E+01
   4.460  0.3044E+00  0.3355E+01
   4.470  0.3026E+00  0.3358E+01
   4.480  0.3007E+00  0.3361E+01
   4.490  0.2988E+00  0.3364E+01
   4.500  0.2970E+00  0.3367E+01
   4.510  0.2951E+00  0.3370E+01
   4.520  0.2932E+00  0.3373E+01
   4.530  0.2913E+00  0.3375E+01
   4.540  0.2894E+00  0.3378E+01
   4.550  0.2875E+00  0.3381E+01
   4.560  0.2855E+00  0.3384E+01
   4.570  0.2836E+00  0.3387E+01
   4.580  0.2816E+00  0.3390E+01
   4.590  0.2797E+00  0.3393E+01
   4.600  0.2777E+00  0.3395E+01
   4.610  0.2757E+00  0.3398E+01
   4.620  0.2737E+00  0.3401E+01
   4.630  0.2717E+00  0.3404E+01
   4.640  0.2697E+00  0.3406E+01
   4.650  0.2677E+00  0.3409E+01
   4.660  0.2657E+00  0.3412E+01
   4.670  0.2636E+00  0.3414E+01
   4.680  0.2616E+00  0.3417E+01
   4.690  0.2595E+00  0.3420E+01
   4.700  0.2574E+00  0.3422E+01
   4.710  0.2553E+00  0.3425E+01
   4.720  0.2541E+00  0.3427E+01
   4.730  0.2532E+00  0.3430E+01
   4.740  0.2523E+00  0.3432E+01
   4.750  0.2514E+00  0.3435E+01
   4.760  0.2504E+00  0.3437E+01
   4.770  0.2495E+00  0.3440E+01
   4.780  0.2486E+00  0.3442E+01
   4.790  0.2477E+00  0.3445E+01
   4.800  0.2468E+00  0.3447E+01
   4.810  0.2459E+00  0.3450E+01
   4.820  0.2450E+00  0.3452E+01
   4.830  0.2441E+00  0.3455E+01
   4.840  0.2432E+00  0.3457E+01
   4.850  0.2423E+00  0.3460E+01
   4.860  0.2414E+00  0.3462E+01
   4.870  0.2405E+00  0.3464E+01
   4.880  0.2396E+00  0.3467E+01
   4.890  0.2387E+00  0.3469E+01
   4.900  0.2378E+00  0.3472E+01
   4.910  0.2369E+00  0.3474E+01
   4.920  0.2361E+00  0.3476E+01
   4.930  0.2352E+00  0.3479E+01
   4.940  0.2343E+00  0.3481E+01
   4.950  0.2334E+00  0.3483E+01
   4.960  0.2326E+00  0.3486E+01
   4.970  0.2317E+00  0.3488E+01
   4.980  0.2308E+00  0.3490E+01
   4.990  0.2300E+00  0.3493E+01
   5.000  0.2291E+00  0.3495E+01
   5.010  0.2282E+00  0.3497E+01
   5.020  0.2274E+00  0.3499E+01
   5.030  0.2265E+00  0.3502E+01
   5.040  0.2257E+00  0.3504E+01
   5.050  0.2248E+00  0.3506E+01
   5.060  0.2240E+00  0.3508E+01
   5.070  0.2232E+00  0.3511E+01
   5.080  0.2223E+00  0.3513E+01
   5.090  0.2215E+00  0.3515E+01
   5.100  0.2206E+00  0.3517E+01
   5.110  0.2198E+00  0.3520E+01
   5.120  0.2190E+00  0.3522E+01
   5.130  0.2205E+00  0.3524E+01
   5.140  0.2222E+00  0.3526E+01
   5.150  0.2239E+00  0.3528E+01
   5.160  0.2257E+00  0.3531E+01
   5.170  0.2275E+00  0.3533E+01
   5.180  0.2294E+00  0.3535E+01
   5.190  0.2313E+00  0.3537E+01
   5.200  0.2333E+00  0.3540E+01
   5.210  0.2353E+00  0.3542E+01
   5.220  0.2373E+00  0.3545E+01
   5.230  0.2395E+00  0.3547E+01
   5.240  0.2416E+00  0.3549E+01
   5.250  0.2438E+00  0.3552E+01
   5.260  0.2461E+00  0.3554E+01
   5.270  0.2484E+00  0.3557E+01
   5.280  0.2508E+00  0.3559E+01
   5.290  0.2532E+00  0.3562E+01
   5.300  0.2557E+00  0.3564E+01
   5.310  0.2582E+00  0.3567E+01
   5.320  0.2608E+00  0.3569E+01
   5.330  0.2634E+00  0.3572E+01
   5.340  0.2661E+00  0.3575E+01
   5.350  0.2688E+00  0.3577E+01
   5.360  0.2716E+00  0.3580E+01
   5.370  0.2744E+00  0.3583E+01
   5.380  0.2772E+00  0.3585E+01
   5.390  0.2802E+00  0.3588E+01
   5.400  0.2831E+00  0.3591E+01
   5.410  0.2861E+00  0.3594E+01
   5.420  0.2892E+00  0.3597E+01
   5.430  0.2923E+00  0.3600E+01
   5.440  0.2955E+00  0.3603E+01
   5.450  0.2987E+00  0.3606E+01
   5.460  0.3020E+00  0.3609E+01
   5.470  0.3053E+00  0.3612E+01
   5.480  0.3087E+00  0.3615E+01
   5.490  0.3121E+00  0.3618E+01
   5.500  0.3155E+00  0.3621E+01
   5.510  0.3191E+00  0.3624E+01
   5.520  0.3226E+00  0.3627E+01
   5.530  0.3262E+00  0.3631E+01
   5.540  0.3299E+00  0.3634E+01
   5.550  0.3336E+00  0.3637E+01
   5.560  0.3374E+00  0.3641E+01
   5.570  0.3412E+00  0.3644E+01
   5.580  0.3451E+00  0.3647E+01
   5.590  0.3490E+00  0.3651E+01
   5.600  0.3529E+00  0.3654E+01
   5.610  0.3570E+00  0.3658E+01
   5.620  0.3610E+00  0.3662E+01
   5.630  0.3651E+00  0.3665E+01
   5.640  0.3693E+00  0.3669E+01
   5.650  0.3735E+00  0.3673E+01
   5.660  0.3778E+00  0.3676E+01
   5.670  0.3821E+00  0.3680E+01
   5.680  0.3865E+00  0.3684E+01
   5.690  0.3909E+00  0.3688E+01
   5.700  0.3953E+00  0.3692E+01
   5.710  0.3999E+00  0.3696E+01
   5.720  0.4044E+00  0.3700E+01
   5.730  0.4090E+00  0.3704E+01
   5.740  0.4137E+00  0.3708E+01
   5.750  0.4184E+00  0.3712E+01
   5.760  0.4232E+00  0.3716E+01
   5.770  0.4280E+00  0.3721E+01
   5.780  0.4328E+00  0.3725E+01
   5.790  0.4378E+00  0.3729E+01
   5.800  0.4427E+00  0.3734E+01
   5.810  0.4477E+00  0.3738E+01
   5.820  0.4528E+00  0.3743E+01
   5.830  0.4579E+00  0.3747E+01
   5.840  0.4714E+00  0.3752E+01
   5.850  0.4929E+00  0.3757E+01
   5.860  0.5141E+00  0.3762E+01
   5.870  0.5351E+00  0.3767E+01
   5.880  0.5557E+00  0.3772E+01
   5.890  0.5760E+00  0.3778E+01
   5.900  0.5960E+00  0.3784E+01
   5.910  0.6157E+00  0.3790E+01
   5.920  0.6350E+00  0.3796E+01
   5.930  0.6541E+00  0.3803E+01
   5.940  0.6729E+00  0.3809E+01
   5.950  0.6914E+00  0.3816E+01
   5.960  0.7095E+00  0.3823E+01
   5.970  0.7274E+00  0.3830E+01
   5.980  0.7449E+00  0.3838E+01
   5.990  0.7622E+00  0.3845E+01
   6.000  0.7791E+00  0.3853E+01
   6.010  0.7958E+00  0.3861E+01
   6.020  0.8121E+00  0.3869E+01
   6.030  0.8281E+00  0.3877E+01
   6.040  0.8438E+00  0.3885E+01
   6.050  0.8593E+00  0.3894E+01
   6.060  0.8744E+00  0.3902E+01
   6.070  0.8892E+00  0.3911E+01
   6.080  0.9037E+00  0.3920E+01
   6.090  0.9179E+00  0.3929E+01
   6.100  0.9317E+00  0.3939E+01
   6.110  0.9453E+00  0.3948E+01
   6.120  0.9586E+00  0.3958E+01
   6.130  0.9716E+00  0.3967E+01
   6.140  0.9842E+00  0.3977E+01
   6.150  0.9966E+00  0.3987E+01
   6.160  0.1009E+01  0.3997E+01
   6.170  0.1020E+01  0.4007E+01
   6.180  0.1032E+01  0.4017E+01
   6.190  0.1043E+01  0.4028E+01
   6.200  0.1054E+01  0.4038E+01
   6.210  0.1064E+01  0.4049E+01
   6.220  0.1075E+01  0.4059E+01
   6.230  0.1084E+01  0.4070E+01
   6.240  0.1094E+01  0.4081E+01
   6.250  0.1103E+01  0.4092E+01
   6.260  0.1112E+01  0.4103E+01
   6.270  0.1121E+01  0.4114E+01
   6.280  0.1129E+01  0.4126E+01
   6.290  0.1138E+01  0.4137E+01
   6.300  0.1145E+01  0.4148E+01
   6.310  0.1153E+01  0.4160E+01
   6.320  0.1160E+01  0.4171E+01
   6.330  0.1167E+01  0.4183E+01
   6.340  0.1173E+01  0.4195E+01
   6.350  0.1180E+01  0.4207E+01
   6.360  0.1186E+01  0.4218E+01
   6.370  0.1191E+01  0.4230E+01
   6.380  0.1196E+01  0.4242E+01
   6.390  0.1202E+01  0.4254E+01
   6.400  0.1206E+01  0.4266E+01
   6.410  0.1211E+01  0.4278E+01
   6.420  0.1215E+01  0.4290E+01
   6.430  0.1219E+01  0.4303E+01
   6.440  0.1222E+01  0.4315E+01
   6.450  0.1225E+01  0.4327E+01
   6.460  0.1228E+01  0.4339E+01
   6.470  0.1231E+01  0.4352E+01
   6.480  0.1233E+01  0.4364E+01
   6.490  0.1235E+01  0.4376E+01
   6.500  0.1237E+01  0.4389E+01
   6.510  0.1238E+01  0.4401E+01
   6.520  0.1239E+01  0.4413E+01
   6.530  0.1240E+01  0.4426E+01
   6.540  0.1240E+01  0.4438E+01
   6.550  0.1240E+01  0.4451E+01
   6.560  0.1240E+01  0.4463E+01
   6.570  0.1240E+01  0.4475E+01
   6.580  0.1239E+01  0.4488E+01
   6.590  0.1238E+01  0.4500E+01
   6.600  0.1236E+01  0.4512E+01
   6.610  0.1235E+01  0.4525E+01
   6.620  0.1233E+01  0.4537E+01
   6.630  0.1230E+01  0.4550E+01
   6.640  0.1228E+01  0.4562E+01
   6.650  0.1225E+01  0.4574E+01
   6.660  0.1222E+01  0.4586E+01
   6.670  0.1218E+01  0.4598E+01
   6.680  0.1214E+01  0.4611E+01
   6.690  0.1210E+01  0.4623E+01
   6.700  0.1198E+01  0.4635E+01
   6.710  0.1174E+01  0.4647E+01
   6.720  0.1150E+01  0.4658E+01
   6.730  0.1127E+01  0.4670E+01
   6.740  0.1104E+01  0.4681E+01
   6.750  0.1082E+01  0.4692E+01
   6.760  0.1061E+01  0.4703E+01
   6.770  0.1040E+01  0.4713E+01
   6.780  0.1019E+01  0.4723E+01
   6.790  0.9993E+00  0.4733E+01
   6.800  0.9799E+00  0.4743E+01
   6.810  0.9610E+00  0.4753E+01
   6.820  0.9426E+00  0.4763E+01
   6.830  0.9248E+00  0.4772E+01
   6.840  0.9075E+00  0.4781E+01
   6.850  0.8909E+00  0.4790E+01
   6.860  0.8750E+00  0.4799E+01
   6.870  0.8597E+00  0.4808E+01
   6.880  0.8449E+00  0.4816E+01
   6.890  0.8306E+00  0.4824E+01
   6.900  0.8168E+00  0.4833E+01
   6.910  0.8036E+00  0.4841E+01
   6.920  0.7909E+00  0.4849E+01
   6.930  0.7787E+00  0.4857E+01
   6.940  0.7670E+00  0.4864E+01
   6.950  0.7559E+00  0.4872E+01
   6.960  0.7453E+00  0.4879E+01
   6.970  0.7352E+00  0.4887E+01
   6.980  0.7257E+00  0.4894E+01
   6.990  0.7166E+00  0.4901E+01
   7.000  0.7081E+00  0.4908E+01
   7.010  0.7002E+00  0.4915E+01
   7.020  0.6927E+00  0.4922E+01
   7.030  0.6858E+00  0.4929E+01
   7.040  0.6794E+00  0.4936E+01
   7.050  0.6735E+00  0.4943E+01
   7.060  0.6682E+00  0.4950E+01
   7.070  0.6633E+00  0.4956E+01
   7.080  0.6590E+00  0.4963E+01
   7.090  0.6553E+00  0.4969E+01
   7.100  0.6520E+00  0.4976E+01
   7.110  0.6493E+00  0.4983E+01
   7.120  0.6471E+00  0.4989E+01
   7.130  0.6454E+00  0.4995E+01
   7.140  0.6443E+00  0.5002E+01
   7.150  0.6437E+00  0.5008E+01
   7.160  0.6436E+00  0.5015E+01
   7.170  0.6437E+00  0.5021E+01
   7.180  0.6438E+00  0.5028E+01
   7.190  0.6440E+00  0.5034E+01
   7.200  0.6441E+00  0.5041E+01
   7.210  0.6443E+00  0.5047E+01
   7.220  0.6445E+00  0.5053E+01
   7.230  0.6447E+00  0.5060E+01
   7.240  0.6449E+00  0.5066E+01
   7.250  0.6451E+00  0.5073E+01
   7.260  0.6454E+00  0.5079E+01
   7.270  0.6456E+00  0.5086E+01
   7.280  0.6459E+00  0.5092E+01
   7.290  0.6462E+00  0.5099E+01
   7.300  0.6465E+00  0.5105E+01
   7.310  0.6468E+00  0.5112E+01
   7.320  0.6471E+00  0.5118E+01
   7.330  0.6475E+00  0.5124E+01
   7.340  0.6478E+00  0.5131E+01
   7.350  0.6482E+00  0.5137E+01
   7.360  0.6486E+00  0.5144E+01
   7.370  0.6490E+00  0.5150E+01
   7.380  0.6494E+00  0.5157E+01
   7.390  0.6498E+00  0.5163E+01
   7.400  0.6502E+00  0.5170E+01
   7.410  0.6507E+00  0.5176E+01
   7.420  0.6511E+00  0.5183E+01
   7.430  0.6516E+00  0.5189E+01
   7.440  0.6521E+00  0.5196E+01
   7.450  0.6526E+00  0.5202E+01
   7.460  0.6531E+00  0.5209E+01
   7.470  0.6536E+00  0.5216E+01
   7.480  0.6542E+00  0.5222E+01
   7.490  0.6547E+00  0.5229E+01
   7.500  0.6553E+00  0.5235E+01
   7.510  0.6559E+00  0.5242E+01
   7.520  0.6565E+00  0.5248E+01
   7.530  0.6571E+00  0.5255E+01
   7.540  0.6577E+00  0.5261E+01
   7.550  0.6584E+00  0.5268E+01
   7.560  0.6590E+00  0.5275E+01
   7.570  0.6597E+00  0.5281E+01
   7.580  0.6604E+00  0.5288E+01
   7.590  0.6610E+00  0.5294E+01
   7.600  0.6618E+00  0.5301E+01
   7.610  0.6625E+00  0.5308E+01
   7.620  0.6632E+00  0.5314E+01
   7.630  0.6640E+00  0.5321E+01
   7.640  0.6647E+00  0.5328E+01
   7.650  0.6655E+00  0.5334E+01
   7.660  0.6663E+00  0.5341E+01
   7.670  0.6671E+00  0.5348E+01
   7.680  0.6679E+00  0.5354E+01
   7.690  0.6687E+00  0.5361E+01
   7.700  0.6696E+00  0.5368E+01
   7.710  0.6704E+00  0.5374E+01
   7.720  0.6713E+00  0.5381E+01
   7.730  0.6722E+00  0.5388E+01
   7.740  0.6731E+00  0.5394E+01
   7.750  0.6740E+00  0.5401E+01
   7.760  0.6749E+00  0.5408E+01
   7.770  0.6758E+00  0.5415E+01
   7.780  0.6768E+00  0.5421E+01
   7.790  0.6778E+00  0.5428E+01
   7.800  0.6787E+00  0.5435E+01
   7.810  0.6797E+00  0.5442E+01
   7.820  0.6807E+00  0.5449E+01
   7.830  0.6818E+00  0.5455E+01
   7.840  0.6828E+00  0.5462E+01
   7.850  0.6838E+00  0.5469E+01
   7.860  0.6849E+00  0.5476E+01
   7.870  0.6860E+00  0.5483E+01
   7.880  0.6871E+00  0.5490E+01
   7.890  0.6882E+00  0.5496E+01
   7.900  0.6893E+00  0.5503E+01
   7.910  0.6904E+00  0.5510E+01
   7.920  0.6915E+00  0.5517E+01
   7.930  0.6927E+00  0.5524E+01
   7.940  0.6939E+00  0.5531E+01
   7.950  0.6950E+00  0.5538E+01
   7.960  0.6962E+00  0.5545E+01
   7.970  0.6975E+00  0.5552E+01
   7.980  0.6987E+00  0.5559E+01
   7.990  0.6999E+00  0.5566E+01
   8.000  0.7012E+00  0.5573E+01
   8.010  0.7024E+00  0.5580E+01
   8.020  0.7037E+00  0.5587E+01
   8.030  0.7050E+00  0.5594E+01
   8.040  0.7063E+00  0.5601E+01
   8.050  0.7076E+00  0.5608E+01
   8.060  0.7090E+00  0.5615E+01
   8.070  0.7103E+00  0.5622E+01
   8.080  0.7117E+00  0.5629E+01
   8.090  0.7130E+00  0.5636E+01
   8.100  0.7144E+00  0.5644E+01
   8.110  0.7158E+00  0.5651E+01
   8.120  0.7172E+00  0.5658E+01
   8.130  0.7187E+00  0.5665E+01
   8.140  0.7201E+00  0.5672E+01
   8.150  0.7216E+00  0.5680E+01
   8.160  0.7230E+00  0.5687E+01
   8.170  0.7245E+00  0.5694E+01
   8.180  0.7260E+00  0.5701E+01
   8.190  0.7275E+00  0.5709E+01
   8.200  0.7290E+00  0.5716E+01
   8.210  0.7306E+00  0.5723E+01
   8.220  0.7321E+00  0.5730E+01
   8.230  0.7337E+00  0.5738E+01
   8.240  0.7353E+00  0.5745E+01
   8.250  0.7369E+00  0.5752E+01
   8.260  0.7385E+00  0.5760E+01
   8.270  0.7401E+00  0.5767E+01
   8.280  0.7417E+00  0.5775E+01
   8.290  0.7434E+00  0.5782E+01
   8.300  0.7450E+00  0.5789E+01
   8.310  0.7467E+00  0.5797E+01
   8.320  0.7484E+00  0.5804E+01
   8.330  0.7501E+00  0.5812E+01
   8.340  0.7518E+00  0.5819E+01
   8.350  0.7535E+00  0.5827E+01
   8.360  0.7553E+00  0.5834E+01
   8.370  0.7570E+00  0.5842E+01
   8.380  0.7588E+00  0.5850E+01
   8.390  0.7606E+00  0.5857E+01
   8.400  0.7623E+00  0.5865E+01
   8.410  0.7642E+00  0.5872E+01
   8.420  0.7660E+00  0.5880E+01
   8.430  0.7678E+00  0.5888E+01
   8.440  0.7697E+00  0.5895E+01
   8.450  0.7715E+00  0.5903E+01
   8.460  0.7734E+00  0.5911E+01
   8.470  0.7753E+00  0.5919E+01
   8.480  0.7772E+00  0.5926E+01
   8.490  0.7791E+00  0.5934E+01
   8.500  0.7810E+00  0.5942E+01
   8.510  0.7830E+00  0.5950E+01
   8.520  0.7850E+00  0.5958E+01
   8.530  0.7869E+00  0.5966E+01
   8.540  0.7889E+00  0.5973E+01
   8.550  0.7909E+00  0.5981E+01
   8.560  0.7929E+00  0.5989E+01
   8.570  0.7949E+00  0.5997E+01
   8.580  0.7970E+00  0.6005E+01
   8.590  0.7990E+00  0.6013E+01
   8.600  0.8011E+00  0.6021E+01
   8.610  0.8032E+00  0.6029E+01
   8.620  0.8052E+00  0.6037E+01
   8.630  0.8072E+00  0.6045E+01
   8.640  0.8091E+00  0.6053E+01
   8.650  0.8110E+00  0.6061E+01
   8.660  0.8129E+00  0.6070E+01
   8.670  0.8147E+00  0.6078E+01
   8.680  0.8165E+00  0.6086E+01
   8.690  0.8182E+00  0.6094E+01
   8.700  0.8199E+00  0.6102E+01
   8.710  0.8216E+00  0.6110E+01
   8.720  0.8232E+00  0.6119E+01
   8.730  0.8247E+00  0.6127E+01
   8.740  0.8263E+00  0.6135E+01
   8.750  0.8277E+00  0.6143E+01
   8.760  0.8292E+00  0.6152E+01
   8.770  0.8306E+00  0.6160E+01
   8.780  0.8319E+00  0.6168E+01
   8.790  0.8332E+00  0.6177E+01
   8.800  0.8345E+00  0.6185E+01
   8.810  0.8357E+00  0.6193E+01
   8.820  0.8369E+00  0.6202E+01
   8.830  0.8381E+00  0.6210E+01
   8.840  0.8392E+00  0.6218E+01
   8.850  0.8402E+00  0.6227E+01
   8.860  0.8413E+00  0.6235E+01
   8.870  0.8422E+00  0.6244E+01
   8.880  0.8432E+00  0.6252E+01
   8.890  0.8441E+00  0.6260E+01
   8.900  0.8449E+00  0.6269E+01
   8.910  0.8457E+00  0.6277E+01
   8.920  0.8465E+00  0.6286E+01
   8.930  0.8472E+00  0.6294E+01
   8.940  0.8479E+00  0.6303E+01
   8.950  0.8486E+00  0.6311E+01
   8.960  0.8492E+00  0.6320E+01
   8.970  0.8503E+00  0.6328E+01
   8.980  0.8516E+00  0.6337E+01
   8.990  0.8528E+00  0.6345E+01
   9.000  0.8540E+00  0.6354E+01
   9.010  0.8551E+00  0.6362E+01
   9.020  0.8563E+00  0.6371E+01
   9.030  0.8573E+00  0.6380E+01
   9.040  0.8584E+00  0.6388E+01
   9.050  0.8594E+00  0.6397E+01
   9.060  0.8603E+00  0.6405E+01
   9.070  0.8613E+00  0.6414E+01
   9.080  0.8622E+00  0.6422E+01
   9.090  0.8630E+00  0.6431E+01
   9.100  0.8638E+00  0.6440E+01
   9.110  0.8646E+00  0.6448E+01
   9.120  0.8653E+00  0.6457E+01
   9.130  0.8660E+00  0.6466E+01
   9.140  0.8667E+00  0.6474E+01
   9.150  0.8673E+00  0.6483E+01
   9.160  0.8679E+00  0.6492E+01
   9.170  0.8684E+00  0.6500E+01
   9.180  0.8690E+00  0.6509E+01
   9.190  0.8694E+00  0.6518E+01
   9.200  0.8699E+00  0.6526E+01
   9.210  0.8703E+00  0.6535E+01
   9.220  0.8706E+00  0.6544E+01
   9.230  0.8709E+00  0.6553E+01
   9.240  0.8712E+00  0.6561E+01
   9.250  0.8715E+00  0.6570E+01
   9.260  0.8717E+00  0.6579E+01
   9.270  0.8718E+00  0.6587E+01
   9.280  0.8720E+00  0.6596E+01
   9.290  0.8721E+00  0.6605E+01
   9.300  0.8721E+00  0.6614E+01
   9.310  0.8721E+00  0.6622E+01
   9.320  0.8721E+00  0.6631E+01
   9.330  0.8720E+00  0.6640E+01
   9.340  0.8720E+00  0.6648E+01
   9.350  0.8718E+00  0.6657E+01
   9.360  0.8716E+00  0.6666E+01
   9.370  0.8714E+00  0.6675E+01
   9.380  0.8712E+00  0.6683E+01
   9.390  0.8702E+00  0.6692E+01
   9.400  0.8690E+00  0.6701E+01
   9.410  0.8678E+00  0.6709E+01
   9.420  0.8666E+00  0.6718E+01
   9.430  0.8654E+00  0.6727E+01
   9.440  0.8641E+00  0.6735E+01
   9.450  0.8628E+00  0.6744E+01
   9.460  0.8614E+00  0.6753E+01
   9.470  0.8601E+00  0.6761E+01
   9.480  0.8587E+00  0.6770E+01
   9.490  0.8572E+00  0.6778E+01
   9.500  0.8558E+00  0.6787E+01
   9.510  0.8543E+00  0.6796E+01
   9.520  0.8528E+00  0.6804E+01
   9.530  0.8512E+00  0.6813E+01
   9.540  0.8497E+00  0.6821E+01
   9.550  0.8481E+00  0.6830E+01
   9.560  0.8464E+00  0.6838E+01
   9.570  0.8448E+00  0.6847E+01
   9.580  0.8431E+00  0.6855E+01
   9.590  0.8413E+00  0.6863E+01
   9.600  0.8396E+00  0.6872E+01
   9.610  0.8378E+00  0.6880E+01
   9.620  0.8360E+00  0.6889E+01
   9.630  0.8342E+00  0.6897E+01
   9.640  0.8323E+00  0.6905E+01
   9.650  0.8304E+00  0.6914E+01
   9.660  0.8284E+00  0.6922E+01
   9.670  0.8265E+00  0.6930E+01
   9.680  0.8245E+00  0.6938E+01
   9.690  0.8225E+00  0.6947E+01
   9.700  0.8204E+00  0.6955E+01
   9.710  0.8184E+00  0.6963E+01
   9.720  0.8162E+00  0.6971E+01
   9.730  0.8141E+00  0.6979E+01
   9.740  0.8119E+00  0.6987E+01
   9.750  0.8097E+00  0.6996E+01
   9.760  0.8075E+00  0.7004E+01
   9.770  0.8053E+00  0.7012E+01
   9.780  0.8030E+00  0.7020E+01
   9.790  0.8007E+00  0.7028E+01
   9.800  0.7983E+00  0.7036E+01
   9.810  0.7959E+00  0.7044E+01
   9.820  0.7935E+00  0.7052E+01
   9.830  0.7911E+00  0.7060E+01
   9.840  0.7886E+00  0.7068E+01
   9.850  0.7862E+00  0.7075E+01
   9.860  0.7836E+00  0.7083E+01
   9.870  0.7811E+00  0.7091E+01
   9.880  0.7785E+00  0.7099E+01
   9.890  0.7759E+00  0.7107E+01
   9.900  0.7732E+00  0.7114E+01
   9.910  0.7706E+00  0.7122E+01
   9.920  0.7679E+00  0.7130E+01
   9.930  0.7651E+00  0.7137E+01
   9.940  0.7624E+00  0.7145E+01
   9.950  0.7596E+00  0.7153E+01
   9.960  0.7568E+00  0.7160E+01
   9.970  0.7539E+00  0.7168E+01
   9.980  0.7511E+00  0.7175E+01
   9.990  0.7481E+00  0.7183E+01
  10.000  0.7452E+00  0.7190E+01
