#  E (eV)   dos(E)     Int dos(E) EFermi =    6.650 eV
  -6.000  0.0000E+00  0.0000E+00
  -5.990  0.0000E+00  0.0000E+00
  -5.980  0.0000E+00  0.0000E+00
  -5.970  0.0000E+00  0.0000E+00
  -5.960  0.0000E+00  0.0000E+00
  -5.950  0.0000E+00  0.0000E+00
  -5.940  0.0000E+00  0.0000E+00
  -5.930  0.0000E+00  0.0000E+00
  -5.920  0.0000E+00  0.0000E+00
  -5.910  0.0000E+00  0.0000E+00
  -5.900  0.0000E+00  0.0000E+00
  -5.890  0.0000E+00  0.0000E+00
  -5.880  0.0000E+00  0.0000E+00
  -5.870  0.0000E+00  0.0000E+00
  -5.860  0.0000E+00  0.0000E+00
  -5.850  0.0000E+00  0.0000E+00
  -5.840  0.0000E+00  0.0000E+00
  -5.830  0.0000E+00  0.0000E+00
  -5.820  0.0000E+00  0.0000E+00
  -5.810  0.0000E+00  0.0000E+00
  -5.800  0.0000E+00  0.0000E+00
  -5.790  0.0000E+00  0.0000E+00
  -5.780  0.0000E+00  0.0000E+00
  -5.770  0.0000E+00  0.0000E+00
  -5.760  0.4431E-06  0.1129E-09
  -5.750  0.8780E-04  0.3150E-06
  -5.740  0.3267E-03  0.2261E-05
  -5.730  0.7171E-03  0.7354E-05
  -5.720  0.1259E-02  0.1711E-04
  -5.710  0.1953E-02  0.3304E-04
  -5.700  0.2798E-02  0.5666E-04
  -5.690  0.3794E-02  0.8950E-04
  -5.680  0.4942E-02  0.1331E-03
  -5.670  0.6242E-02  0.1888E-03
  -5.660  0.7693E-02  0.2584E-03
  -5.650  0.9296E-02  0.3432E-03
  -5.640  0.1105E-01  0.4448E-03
  -5.630  0.1296E-01  0.5647E-03
  -5.620  0.1501E-01  0.7044E-03
  -5.610  0.1722E-01  0.8655E-03
  -5.600  0.1958E-01  0.1049E-02
  -5.590  0.2209E-01  0.1258E-02
  -5.580  0.2476E-01  0.1492E-02
  -5.570  0.2757E-01  0.1753E-02
  -5.560  0.3054E-01  0.2044E-02
  -5.550  0.3366E-01  0.2365E-02
  -5.540  0.3693E-01  0.2717E-02
  -5.530  0.4035E-01  0.3104E-02
  -5.520  0.4392E-01  0.3525E-02
  -5.510  0.4764E-01  0.3982E-02
  -5.500  0.5152E-01  0.4478E-02
  -5.490  0.5555E-01  0.5013E-02
  -5.480  0.5973E-01  0.5590E-02
  -5.470  0.6406E-01  0.6208E-02
  -5.460  0.6854E-01  0.6871E-02
  -5.450  0.7317E-01  0.7580E-02
  -5.440  0.7796E-01  0.8335E-02
  -5.430  0.8289E-01  0.9139E-02
  -5.420  0.8798E-01  0.9994E-02
  -5.410  0.9322E-01  0.1090E-01
  -5.400  0.9861E-01  0.1186E-01
  -5.390  0.1456E+00  0.1308E-01
  -5.380  0.1866E+00  0.1475E-01
  -5.370  0.2202E+00  0.1679E-01
  -5.360  0.2464E+00  0.1913E-01
  -5.350  0.2652E+00  0.2169E-01
  -5.340  0.2766E+00  0.2440E-01
  -5.330  0.2806E+00  0.2720E-01
  -5.320  0.2771E+00  0.2999E-01
  -5.310  0.2663E+00  0.3271E-01
  -5.300  0.2481E+00  0.3529E-01
  -5.290  0.2225E+00  0.3765E-01
  -5.280  0.1895E+00  0.3972E-01
  -5.270  0.1793E+00  0.4152E-01
  -5.260  0.1820E+00  0.4333E-01
  -5.250  0.1846E+00  0.4516E-01
  -5.240  0.1873E+00  0.4702E-01
  -5.230  0.1900E+00  0.4890E-01
  -5.220  0.1927E+00  0.5082E-01
  -5.210  0.1954E+00  0.5276E-01
  -5.200  0.1981E+00  0.5473E-01
  -5.190  0.2009E+00  0.5672E-01
  -5.180  0.2036E+00  0.5874E-01
  -5.170  0.2064E+00  0.6079E-01
  -5.160  0.2092E+00  0.6287E-01
  -5.150  0.2120E+00  0.6498E-01
  -5.140  0.2148E+00  0.6711E-01
  -5.130  0.2177E+00  0.6927E-01
  -5.120  0.2205E+00  0.7147E-01
  -5.110  0.2234E+00  0.7369E-01
  -5.100  0.2263E+00  0.7593E-01
  -5.090  0.2292E+00  0.7821E-01
  -5.080  0.2321E+00  0.8052E-01
  -5.070  0.2350E+00  0.8285E-01
  -5.060  0.2380E+00  0.8522E-01
  -5.050  0.2410E+00  0.8761E-01
  -5.040  0.2439E+00  0.9004E-01
  -5.030  0.2469E+00  0.9249E-01
  -5.020  0.2499E+00  0.9498E-01
  -5.010  0.2530E+00  0.9749E-01
  -5.000  0.2560E+00  0.1000E+00
  -4.990  0.2591E+00  0.1026E+00
  -4.980  0.2621E+00  0.1052E+00
  -4.970  0.2652E+00  0.1079E+00
  -4.960  0.2683E+00  0.1105E+00
  -4.950  0.2714E+00  0.1132E+00
  -4.940  0.2746E+00  0.1159E+00
  -4.930  0.2777E+00  0.1187E+00
  -4.920  0.2809E+00  0.1215E+00
  -4.910  0.2840E+00  0.1243E+00
  -4.900  0.2872E+00  0.1272E+00
  -4.890  0.2905E+00  0.1301E+00
  -4.880  0.2937E+00  0.1330E+00
  -4.870  0.2969E+00  0.1359E+00
  -4.860  0.3002E+00  0.1389E+00
  -4.850  0.3034E+00  0.1420E+00
  -4.840  0.3067E+00  0.1450E+00
  -4.830  0.3100E+00  0.1481E+00
  -4.820  0.3133E+00  0.1512E+00
  -4.810  0.3170E+00  0.1544E+00
  -4.800  0.3224E+00  0.1575E+00
  -4.790  0.3276E+00  0.1608E+00
  -4.780  0.3328E+00  0.1641E+00
  -4.770  0.3378E+00  0.1675E+00
  -4.760  0.3428E+00  0.1709E+00
  -4.750  0.3476E+00  0.1743E+00
  -4.740  0.3523E+00  0.1778E+00
  -4.730  0.3569E+00  0.1814E+00
  -4.720  0.3614E+00  0.1849E+00
  -4.710  0.3658E+00  0.1886E+00
  -4.700  0.3701E+00  0.1923E+00
  -4.690  0.3743E+00  0.1960E+00
  -4.680  0.3783E+00  0.1997E+00
  -4.670  0.3823E+00  0.2036E+00
  -4.660  0.3862E+00  0.2074E+00
  -4.650  0.3899E+00  0.2113E+00
  -4.640  0.3936E+00  0.2152E+00
  -4.630  0.3971E+00  0.2191E+00
  -4.620  0.4005E+00  0.2231E+00
  -4.610  0.4038E+00  0.2272E+00
  -4.600  0.4071E+00  0.2312E+00
  -4.590  0.4102E+00  0.2353E+00
  -4.580  0.4132E+00  0.2394E+00
  -4.570  0.4161E+00  0.2436E+00
  -4.560  0.4189E+00  0.2477E+00
  -4.550  0.4215E+00  0.2519E+00
  -4.540  0.4241E+00  0.2562E+00
  -4.530  0.4266E+00  0.2604E+00
  -4.520  0.4289E+00  0.2647E+00
  -4.510  0.4312E+00  0.2690E+00
  -4.500  0.4333E+00  0.2733E+00
  -4.490  0.4354E+00  0.2777E+00
  -4.480  0.4373E+00  0.2820E+00
  -4.470  0.4391E+00  0.2864E+00
  -4.460  0.4392E+00  0.2908E+00
  -4.450  0.4329E+00  0.2952E+00
  -4.440  0.4280E+00  0.2995E+00
  -4.430  0.4243E+00  0.3037E+00
  -4.420  0.4219E+00  0.3080E+00
  -4.410  0.4209E+00  0.3122E+00
  -4.400  0.4211E+00  0.3164E+00
  -4.390  0.4227E+00  0.3206E+00
  -4.380  0.4254E+00  0.3248E+00
  -4.370  0.4284E+00  0.3291E+00
  -4.360  0.4313E+00  0.3334E+00
  -4.350  0.4344E+00  0.3377E+00
  -4.340  0.4374E+00  0.3421E+00
  -4.330  0.4405E+00  0.3465E+00
  -4.320  0.4436E+00  0.3509E+00
  -4.310  0.4468E+00  0.3554E+00
  -4.300  0.4500E+00  0.3598E+00
  -4.290  0.4532E+00  0.3644E+00
  -4.280  0.4565E+00  0.3689E+00
  -4.270  0.4598E+00  0.3735E+00
  -4.260  0.4631E+00  0.3781E+00
  -4.250  0.4665E+00  0.3827E+00
  -4.240  0.4699E+00  0.3874E+00
  -4.230  0.4734E+00  0.3921E+00
  -4.220  0.4768E+00  0.3969E+00
  -4.210  0.4804E+00  0.4017E+00
  -4.200  0.4839E+00  0.4065E+00
  -4.190  0.4875E+00  0.4114E+00
  -4.180  0.4911E+00  0.4163E+00
  -4.170  0.4948E+00  0.4212E+00
  -4.160  0.4984E+00  0.4262E+00
  -4.150  0.5022E+00  0.4312E+00
  -4.140  0.5059E+00  0.4362E+00
  -4.130  0.5097E+00  0.4413E+00
  -4.120  0.5135E+00  0.4464E+00
  -4.110  0.5174E+00  0.4515E+00
  -4.100  0.5213E+00  0.4567E+00
  -4.090  0.5252E+00  0.4620E+00
  -4.080  0.5292E+00  0.4672E+00
  -4.070  0.5332E+00  0.4726E+00
  -4.060  0.5373E+00  0.4779E+00
  -4.050  0.5413E+00  0.4833E+00
  -4.040  0.5454E+00  0.4887E+00
  -4.030  0.5496E+00  0.4942E+00
  -4.020  0.5538E+00  0.4997E+00
  -4.010  0.5580E+00  0.5053E+00
  -4.000  0.5622E+00  0.5109E+00
  -3.990  0.5665E+00  0.5165E+00
  -3.980  0.5708E+00  0.5222E+00
  -3.970  0.5752E+00  0.5279E+00
  -3.960  0.5796E+00  0.5337E+00
  -3.950  0.5840E+00  0.5395E+00
  -3.940  0.5885E+00  0.5454E+00
  -3.930  0.5930E+00  0.5513E+00
  -3.920  0.5975E+00  0.5573E+00
  -3.910  0.6021E+00  0.5633E+00
  -3.900  0.6067E+00  0.5693E+00
  -3.890  0.6113E+00  0.5754E+00
  -3.880  0.6160E+00  0.5815E+00
  -3.870  0.6207E+00  0.5877E+00
  -3.860  0.6254E+00  0.5939E+00
  -3.850  0.6302E+00  0.6002E+00
  -3.840  0.6350E+00  0.6065E+00
  -3.830  0.6398E+00  0.6129E+00
  -3.820  0.6446E+00  0.6193E+00
  -3.810  0.6495E+00  0.6258E+00
  -3.800  0.6544E+00  0.6323E+00
  -3.790  0.6593E+00  0.6389E+00
  -3.780  0.6642E+00  0.6455E+00
  -3.770  0.6691E+00  0.6522E+00
  -3.760  0.6741E+00  0.6589E+00
  -3.750  0.6790E+00  0.6657E+00
  -3.740  0.6840E+00  0.6725E+00
  -3.730  0.6891E+00  0.6793E+00
  -3.720  0.6941E+00  0.6863E+00
  -3.710  0.6991E+00  0.6932E+00
  -3.700  0.7042E+00  0.7002E+00
  -3.690  0.7093E+00  0.7073E+00
  -3.680  0.7144E+00  0.7144E+00
  -3.670  0.7196E+00  0.7216E+00
  -3.660  0.7247E+00  0.7288E+00
  -3.650  0.7421E+00  0.7361E+00
  -3.640  0.7675E+00  0.7437E+00
  -3.630  0.7916E+00  0.7515E+00
  -3.620  0.8147E+00  0.7595E+00
  -3.610  0.8365E+00  0.7678E+00
  -3.600  0.8572E+00  0.7762E+00
  -3.590  0.8767E+00  0.7849E+00
  -3.580  0.8950E+00  0.7938E+00
  -3.570  0.9122E+00  0.8028E+00
  -3.560  0.9282E+00  0.8120E+00
  -3.550  0.9430E+00  0.8214E+00
  -3.540  0.9567E+00  0.8309E+00
  -3.530  0.9692E+00  0.8405E+00
  -3.520  0.9805E+00  0.8502E+00
  -3.510  0.9907E+00  0.8601E+00
  -3.500  0.9997E+00  0.8701E+00
  -3.490  0.1007E+01  0.8801E+00
  -3.480  0.1014E+01  0.8902E+00
  -3.470  0.1020E+01  0.9004E+00
  -3.460  0.1023E+01  0.9106E+00
  -3.450  0.1026E+01  0.9208E+00
  -3.440  0.1027E+01  0.9311E+00
  -3.430  0.1026E+01  0.9414E+00
  -3.420  0.1025E+01  0.9516E+00
  -3.410  0.1022E+01  0.9618E+00
  -3.400  0.1018E+01  0.9720E+00
  -3.390  0.1013E+01  0.9822E+00
  -3.380  0.1007E+01  0.9923E+00
  -3.370  0.1000E+01  0.1002E+01
  -3.360  0.9924E+00  0.1012E+01
  -3.350  0.9833E+00  0.1022E+01
  -3.340  0.9731E+00  0.1032E+01
  -3.330  0.9618E+00  0.1042E+01
  -3.320  0.9495E+00  0.1051E+01
  -3.310  0.9361E+00  0.1061E+01
  -3.300  0.9216E+00  0.1070E+01
  -3.290  0.9061E+00  0.1079E+01
  -3.280  0.8894E+00  0.1088E+01
  -3.270  0.8735E+00  0.1097E+01
  -3.260  0.8719E+00  0.1106E+01
  -3.250  0.8703E+00  0.1114E+01
  -3.240  0.8688E+00  0.1123E+01
  -3.230  0.8673E+00  0.1132E+01
  -3.220  0.8659E+00  0.1140E+01
  -3.210  0.8645E+00  0.1149E+01
  -3.200  0.8632E+00  0.1158E+01
  -3.190  0.8619E+00  0.1166E+01
  -3.180  0.8606E+00  0.1175E+01
  -3.170  0.8594E+00  0.1183E+01
  -3.160  0.8582E+00  0.1192E+01
  -3.150  0.8570E+00  0.1201E+01
  -3.140  0.8560E+00  0.1209E+01
  -3.130  0.8549E+00  0.1218E+01
  -3.120  0.8539E+00  0.1226E+01
  -3.110  0.8529E+00  0.1235E+01
  -3.100  0.8520E+00  0.1243E+01
  -3.090  0.8511E+00  0.1252E+01
  -3.080  0.8502E+00  0.1260E+01
  -3.070  0.8494E+00  0.1269E+01
  -3.060  0.8487E+00  0.1277E+01
  -3.050  0.8480E+00  0.1286E+01
  -3.040  0.8473E+00  0.1294E+01
  -3.030  0.8466E+00  0.1303E+01
  -3.020  0.8460E+00  0.1311E+01
  -3.010  0.8455E+00  0.1320E+01
  -3.000  0.8450E+00  0.1328E+01
  -2.990  0.8445E+00  0.1337E+01
  -2.980  0.8441E+00  0.1345E+01
  -2.970  0.8437E+00  0.1353E+01
  -2.960  0.8433E+00  0.1362E+01
  -2.950  0.8430E+00  0.1370E+01
  -2.940  0.8428E+00  0.1379E+01
  -2.930  0.8426E+00  0.1387E+01
  -2.920  0.8424E+00  0.1396E+01
  -2.910  0.8422E+00  0.1404E+01
  -2.900  0.8421E+00  0.1412E+01
  -2.890  0.8421E+00  0.1421E+01
  -2.880  0.8421E+00  0.1429E+01
  -2.870  0.8421E+00  0.1438E+01
  -2.860  0.8422E+00  0.1446E+01
  -2.850  0.8423E+00  0.1455E+01
  -2.840  0.8424E+00  0.1463E+01
  -2.830  0.8426E+00  0.1471E+01
  -2.820  0.8429E+00  0.1480E+01
  -2.810  0.8432E+00  0.1488E+01
  -2.800  0.8435E+00  0.1497E+01
  -2.790  0.8438E+00  0.1505E+01
  -2.780  0.8442E+00  0.1514E+01
  -2.770  0.8447E+00  0.1522E+01
  -2.760  0.8452E+00  0.1530E+01
  -2.750  0.8457E+00  0.1539E+01
  -2.740  0.8463E+00  0.1547E+01
  -2.730  0.8469E+00  0.1556E+01
  -2.720  0.8476E+00  0.1564E+01
  -2.710  0.8482E+00  0.1573E+01
  -2.700  0.8490E+00  0.1581E+01
  -2.690  0.8491E+00  0.1590E+01
  -2.680  0.8475E+00  0.1598E+01
  -2.670  0.8452E+00  0.1607E+01
  -2.660  0.8422E+00  0.1615E+01
  -2.650  0.8385E+00  0.1624E+01
  -2.640  0.8341E+00  0.1632E+01
  -2.630  0.8289E+00  0.1640E+01
  -2.620  0.8230E+00  0.1649E+01
  -2.610  0.8164E+00  0.1657E+01
  -2.600  0.8091E+00  0.1665E+01
  -2.590  0.8010E+00  0.1673E+01
  -2.580  0.7923E+00  0.1681E+01
  -2.570  0.7828E+00  0.1689E+01
  -2.560  0.7726E+00  0.1697E+01
  -2.550  0.7616E+00  0.1704E+01
  -2.540  0.7500E+00  0.1712E+01
  -2.530  0.7376E+00  0.1719E+01
  -2.520  0.7245E+00  0.1727E+01
  -2.510  0.7106E+00  0.1734E+01
  -2.500  0.6961E+00  0.1741E+01
  -2.490  0.6526E+00  0.1748E+01
  -2.480  0.6250E+00  0.1754E+01
  -2.470  0.6150E+00  0.1760E+01
  -2.460  0.6051E+00  0.1766E+01
  -2.450  0.5952E+00  0.1772E+01
  -2.440  0.5855E+00  0.1778E+01
  -2.430  0.5758E+00  0.1784E+01
  -2.420  0.5661E+00  0.1790E+01
  -2.410  0.5566E+00  0.1795E+01
  -2.400  0.5471E+00  0.1801E+01
  -2.390  0.5377E+00  0.1806E+01
  -2.380  0.5284E+00  0.1811E+01
  -2.370  0.5191E+00  0.1817E+01
  -2.360  0.5099E+00  0.1822E+01
  -2.350  0.5008E+00  0.1827E+01
  -2.340  0.4918E+00  0.1832E+01
  -2.330  0.4828E+00  0.1837E+01
  -2.320  0.4739E+00  0.1842E+01
  -2.310  0.4651E+00  0.1846E+01
  -2.300  0.4564E+00  0.1851E+01
  -2.290  0.4477E+00  0.1855E+01
  -2.280  0.4391E+00  0.1860E+01
  -2.270  0.4306E+00  0.1864E+01
  -2.260  0.4221E+00  0.1868E+01
  -2.250  0.4137E+00  0.1873E+01
  -2.240  0.4054E+00  0.1877E+01
  -2.230  0.3972E+00  0.1881E+01
  -2.220  0.3890E+00  0.1885E+01
  -2.210  0.3810E+00  0.1888E+01
  -2.200  0.3729E+00  0.1892E+01
  -2.190  0.3650E+00  0.1896E+01
  -2.180  0.3571E+00  0.1900E+01
  -2.170  0.3493E+00  0.1903E+01
  -2.160  0.3416E+00  0.1907E+01
  -2.150  0.3340E+00  0.1910E+01
  -2.140  0.3264E+00  0.1913E+01
  -2.130  0.3189E+00  0.1916E+01
  -2.120  0.3115E+00  0.1920E+01
  -2.110  0.3041E+00  0.1923E+01
  -2.100  0.2968E+00  0.1926E+01
  -2.090  0.2896E+00  0.1929E+01
  -2.080  0.2825E+00  0.1931E+01
  -2.070  0.2754E+00  0.1934E+01
  -2.060  0.2685E+00  0.1937E+01
  -2.050  0.2615E+00  0.1940E+01
  -2.040  0.2547E+00  0.1942E+01
  -2.030  0.2479E+00  0.1945E+01
  -2.020  0.2412E+00  0.1947E+01
  -2.010  0.2346E+00  0.1950E+01
  -2.000  0.2281E+00  0.1952E+01
  -1.990  0.2216E+00  0.1954E+01
  -1.980  0.2152E+00  0.1956E+01
  -1.970  0.2089E+00  0.1958E+01
  -1.960  0.2026E+00  0.1960E+01
  -1.950  0.1964E+00  0.1962E+01
  -1.940  0.1903E+00  0.1964E+01
  -1.930  0.1843E+00  0.1966E+01
  -1.920  0.1783E+00  0.1968E+01
  -1.910  0.1724E+00  0.1970E+01
  -1.900  0.1666E+00  0.1972E+01
  -1.890  0.1609E+00  0.1973E+01
  -1.880  0.1552E+00  0.1975E+01
  -1.870  0.1496E+00  0.1976E+01
  -1.860  0.1441E+00  0.1978E+01
  -1.850  0.1387E+00  0.1979E+01
  -1.840  0.1333E+00  0.1980E+01
  -1.830  0.1280E+00  0.1982E+01
  -1.820  0.1228E+00  0.1983E+01
  -1.810  0.1176E+00  0.1984E+01
  -1.800  0.1125E+00  0.1985E+01
  -1.790  0.1075E+00  0.1987E+01
  -1.780  0.1026E+00  0.1988E+01
  -1.770  0.9772E-01  0.1989E+01
  -1.760  0.9293E-01  0.1990E+01
  -1.750  0.8821E-01  0.1990E+01
  -1.740  0.8357E-01  0.1991E+01
  -1.730  0.7900E-01  0.1992E+01
  -1.720  0.7450E-01  0.1993E+01
  -1.710  0.7008E-01  0.1994E+01
  -1.700  0.6573E-01  0.1994E+01
  -1.690  0.6146E-01  0.1995E+01
  -1.680  0.5726E-01  0.1995E+01
  -1.670  0.5313E-01  0.1996E+01
  -1.660  0.4907E-01  0.1997E+01
  -1.650  0.4509E-01  0.1997E+01
  -1.640  0.4118E-01  0.1997E+01
  -1.630  0.3734E-01  0.1998E+01
  -1.620  0.3358E-01  0.1998E+01
  -1.610  0.2995E-01  0.1999E+01
  -1.600  0.2659E-01  0.1999E+01
  -1.590  0.2350E-01  0.1999E+01
  -1.580  0.2069E-01  0.1999E+01
  -1.570  0.1815E-01  0.1999E+01
  -1.560  0.1587E-01  0.2000E+01
  -1.550  0.1387E-01  0.2000E+01
  -1.540  0.1215E-01  0.2000E+01
  -1.530  0.1069E-01  0.2000E+01
  -1.520  0.9505E-02  0.2000E+01
  -1.510  0.8593E-02  0.2000E+01
  -1.500  0.7953E-02  0.2000E+01
  -1.490  0.1072E-01  0.2000E+01
  -1.480  0.1428E-01  0.2001E+01
  -1.470  0.1794E-01  0.2001E+01
  -1.460  0.2170E-01  0.2001E+01
  -1.450  0.2557E-01  0.2001E+01
  -1.440  0.2953E-01  0.2001E+01
  -1.430  0.3360E-01  0.2002E+01
  -1.420  0.3776E-01  0.2002E+01
  -1.410  0.4203E-01  0.2002E+01
  -1.400  0.4640E-01  0.2003E+01
  -1.390  0.5087E-01  0.2003E+01
  -1.380  0.5544E-01  0.2004E+01
  -1.370  0.6012E-01  0.2004E+01
  -1.360  0.6489E-01  0.2005E+01
  -1.350  0.6977E-01  0.2006E+01
  -1.340  0.7474E-01  0.2007E+01
  -1.330  0.7982E-01  0.2007E+01
  -1.320  0.8500E-01  0.2008E+01
  -1.310  0.9028E-01  0.2009E+01
  -1.300  0.9566E-01  0.2010E+01
  -1.290  0.1011E+00  0.2011E+01
  -1.280  0.1067E+00  0.2012E+01
  -1.270  0.1124E+00  0.2013E+01
  -1.260  0.1182E+00  0.2014E+01
  -1.250  0.1241E+00  0.2015E+01
  -1.240  0.1301E+00  0.2017E+01
  -1.230  0.1361E+00  0.2018E+01
  -1.220  0.1423E+00  0.2019E+01
  -1.210  0.1486E+00  0.2021E+01
  -1.200  0.1550E+00  0.2022E+01
  -1.190  0.1615E+00  0.2024E+01
  -1.180  0.1681E+00  0.2026E+01
  -1.170  0.1748E+00  0.2027E+01
  -1.160  0.1816E+00  0.2029E+01
  -1.150  0.1885E+00  0.2031E+01
  -1.140  0.1955E+00  0.2033E+01
  -1.130  0.2026E+00  0.2035E+01
  -1.120  0.2098E+00  0.2037E+01
  -1.110  0.2171E+00  0.2039E+01
  -1.100  0.2245E+00  0.2041E+01
  -1.090  0.2320E+00  0.2044E+01
  -1.080  0.2396E+00  0.2046E+01
  -1.070  0.2473E+00  0.2048E+01
  -1.060  0.2551E+00  0.2051E+01
  -1.050  0.2630E+00  0.2053E+01
  -1.040  0.2710E+00  0.2056E+01
  -1.030  0.2791E+00  0.2059E+01
  -1.020  0.2873E+00  0.2062E+01
  -1.010  0.2956E+00  0.2065E+01
  -1.000  0.3041E+00  0.2068E+01
  -0.990  0.3126E+00  0.2071E+01
  -0.980  0.3212E+00  0.2074E+01
  -0.970  0.3299E+00  0.2077E+01
  -0.960  0.3387E+00  0.2080E+01
  -0.950  0.3476E+00  0.2084E+01
  -0.940  0.3567E+00  0.2087E+01
  -0.930  0.3658E+00  0.2091E+01
  -0.920  0.3750E+00  0.2095E+01
  -0.910  0.3843E+00  0.2099E+01
  -0.900  0.3937E+00  0.2102E+01
  -0.890  0.4033E+00  0.2106E+01
  -0.880  0.4129E+00  0.2110E+01
  -0.870  0.4226E+00  0.2115E+01
  -0.860  0.4324E+00  0.2119E+01
  -0.850  0.4424E+00  0.2123E+01
  -0.840  0.4524E+00  0.2128E+01
  -0.830  0.4625E+00  0.2132E+01
  -0.820  0.4728E+00  0.2137E+01
  -0.810  0.4831E+00  0.2142E+01
  -0.800  0.4935E+00  0.2147E+01
  -0.790  0.5041E+00  0.2152E+01
  -0.780  0.5147E+00  0.2157E+01
  -0.770  0.5254E+00  0.2162E+01
  -0.760  0.5371E+00  0.2167E+01
  -0.750  0.5505E+00  0.2173E+01
  -0.740  0.5657E+00  0.2178E+01
  -0.730  0.5827E+00  0.2184E+01
  -0.720  0.6014E+00  0.2190E+01
  -0.710  0.6218E+00  0.2196E+01
  -0.700  0.6441E+00  0.2202E+01
  -0.690  0.6680E+00  0.2209E+01
  -0.680  0.6938E+00  0.2216E+01
  -0.670  0.7212E+00  0.2223E+01
  -0.660  0.7505E+00  0.2230E+01
  -0.650  0.7815E+00  0.2238E+01
  -0.640  0.8313E+00  0.2246E+01
  -0.630  0.8975E+00  0.2255E+01
  -0.620  0.9570E+00  0.2264E+01
  -0.610  0.1010E+01  0.2274E+01
  -0.600  0.1056E+01  0.2284E+01
  -0.590  0.1095E+01  0.2295E+01
  -0.580  0.1128E+01  0.2306E+01
  -0.570  0.1154E+01  0.2317E+01
  -0.560  0.1175E+01  0.2329E+01
  -0.550  0.1193E+01  0.2341E+01
  -0.540  0.1208E+01  0.2353E+01
  -0.530  0.1220E+01  0.2365E+01
  -0.520  0.1229E+01  0.2377E+01
  -0.510  0.1234E+01  0.2389E+01
  -0.500  0.1236E+01  0.2402E+01
  -0.490  0.1235E+01  0.2414E+01
  -0.480  0.1230E+01  0.2427E+01
  -0.470  0.1222E+01  0.2439E+01
  -0.460  0.1211E+01  0.2451E+01
  -0.450  0.1197E+01  0.2463E+01
  -0.440  0.1180E+01  0.2475E+01
  -0.430  0.1159E+01  0.2487E+01
  -0.420  0.1135E+01  0.2498E+01
  -0.410  0.1108E+01  0.2509E+01
  -0.400  0.1104E+01  0.2520E+01
  -0.390  0.1110E+01  0.2531E+01
  -0.380  0.1109E+01  0.2542E+01
  -0.370  0.1101E+01  0.2553E+01
  -0.360  0.1095E+01  0.2564E+01
  -0.350  0.1092E+01  0.2575E+01
  -0.340  0.1089E+01  0.2586E+01
  -0.330  0.1085E+01  0.2597E+01
  -0.320  0.1082E+01  0.2608E+01
  -0.310  0.1078E+01  0.2619E+01
  -0.300  0.1074E+01  0.2630E+01
  -0.290  0.1071E+01  0.2640E+01
  -0.280  0.1067E+01  0.2651E+01
  -0.270  0.1063E+01  0.2662E+01
  -0.260  0.1058E+01  0.2672E+01
  -0.250  0.1054E+01  0.2683E+01
  -0.240  0.1050E+01  0.2693E+01
  -0.230  0.1045E+01  0.2704E+01
  -0.220  0.1041E+01  0.2714E+01
  -0.210  0.1036E+01  0.2725E+01
  -0.200  0.1031E+01  0.2735E+01
  -0.190  0.1026E+01  0.2745E+01
  -0.180  0.1021E+01  0.2755E+01
  -0.170  0.1016E+01  0.2766E+01
  -0.160  0.1011E+01  0.2776E+01
  -0.150  0.1005E+01  0.2786E+01
  -0.140  0.9996E+00  0.2796E+01
  -0.130  0.9940E+00  0.2806E+01
  -0.120  0.9882E+00  0.2816E+01
  -0.110  0.9823E+00  0.2826E+01
  -0.100  0.9763E+00  0.2835E+01
  -0.090  0.9702E+00  0.2845E+01
  -0.080  0.9640E+00  0.2855E+01
  -0.070  0.9576E+00  0.2864E+01
  -0.060  0.9512E+00  0.2874E+01
  -0.050  0.9446E+00  0.2883E+01
  -0.040  0.9379E+00  0.2893E+01
  -0.030  0.9311E+00  0.2902E+01
  -0.020  0.9242E+00  0.2911E+01
  -0.010  0.9172E+00  0.2921E+01
  -0.000  0.9100E+00  0.2930E+01
   0.010  0.9028E+00  0.2939E+01
   0.020  0.8954E+00  0.2948E+01
   0.030  0.8879E+00  0.2957E+01
   0.040  0.8803E+00  0.2966E+01
   0.050  0.8726E+00  0.2974E+01
   0.060  0.8648E+00  0.2983E+01
   0.070  0.8568E+00  0.2992E+01
   0.080  0.8487E+00  0.3000E+01
   0.090  0.8406E+00  0.3009E+01
   0.100  0.8323E+00  0.3017E+01
   0.110  0.8239E+00  0.3025E+01
   0.120  0.8153E+00  0.3034E+01
   0.130  0.8067E+00  0.3042E+01
   0.140  0.7980E+00  0.3050E+01
   0.150  0.7891E+00  0.3058E+01
   0.160  0.7801E+00  0.3065E+01
   0.170  0.7710E+00  0.3073E+01
   0.180  0.7618E+00  0.3081E+01
   0.190  0.7525E+00  0.3088E+01
   0.200  0.7422E+00  0.3096E+01
   0.210  0.7318E+00  0.3103E+01
   0.220  0.7216E+00  0.3111E+01
   0.230  0.7115E+00  0.3118E+01
   0.240  0.7016E+00  0.3125E+01
   0.250  0.6919E+00  0.3132E+01
   0.260  0.6823E+00  0.3139E+01
   0.270  0.6729E+00  0.3145E+01
   0.280  0.6637E+00  0.3152E+01
   0.290  0.6547E+00  0.3159E+01
   0.300  0.6459E+00  0.3165E+01
   0.310  0.6372E+00  0.3172E+01
   0.320  0.6287E+00  0.3178E+01
   0.330  0.6203E+00  0.3184E+01
   0.340  0.6122E+00  0.3190E+01
   0.350  0.6042E+00  0.3196E+01
   0.360  0.5963E+00  0.3202E+01
   0.370  0.5887E+00  0.3208E+01
   0.380  0.5812E+00  0.3214E+01
   0.390  0.5739E+00  0.3220E+01
   0.400  0.5668E+00  0.3226E+01
   0.410  0.5599E+00  0.3231E+01
   0.420  0.5531E+00  0.3237E+01
   0.430  0.5465E+00  0.3242E+01
   0.440  0.5400E+00  0.3248E+01
   0.450  0.5338E+00  0.3253E+01
   0.460  0.5277E+00  0.3258E+01
   0.470  0.5218E+00  0.3264E+01
   0.480  0.5160E+00  0.3269E+01
   0.490  0.5105E+00  0.3274E+01
   0.500  0.5051E+00  0.3279E+01
   0.510  0.4998E+00  0.3284E+01
   0.520  0.4948E+00  0.3289E+01
   0.530  0.4899E+00  0.3294E+01
   0.540  0.4852E+00  0.3299E+01
   0.550  0.4807E+00  0.3304E+01
   0.560  0.4765E+00  0.3308E+01
   0.570  0.4726E+00  0.3313E+01
   0.580  0.4687E+00  0.3318E+01
   0.590  0.4649E+00  0.3323E+01
   0.600  0.4611E+00  0.3327E+01
   0.610  0.4574E+00  0.3332E+01
   0.620  0.4537E+00  0.3336E+01
   0.630  0.4501E+00  0.3341E+01
   0.640  0.4465E+00  0.3345E+01
   0.650  0.4430E+00  0.3350E+01
   0.660  0.4395E+00  0.3354E+01
   0.670  0.4361E+00  0.3359E+01
   0.680  0.4327E+00  0.3363E+01
   0.690  0.4294E+00  0.3367E+01
   0.700  0.4261E+00  0.3372E+01
   0.710  0.4229E+00  0.3376E+01
   0.720  0.4198E+00  0.3380E+01
   0.730  0.4166E+00  0.3384E+01
   0.740  0.4136E+00  0.3388E+01
   0.750  0.4106E+00  0.3392E+01
   0.760  0.4076E+00  0.3397E+01
   0.770  0.4047E+00  0.3401E+01
   0.780  0.4019E+00  0.3405E+01
   0.790  0.3991E+00  0.3409E+01
   0.800  0.3963E+00  0.3413E+01
   0.810  0.3936E+00  0.3417E+01
   0.820  0.3910E+00  0.3421E+01
   0.830  0.3884E+00  0.3424E+01
   0.840  0.3858E+00  0.3428E+01
   0.850  0.3833E+00  0.3432E+01
   0.860  0.3809E+00  0.3436E+01
   0.870  0.3785E+00  0.3440E+01
   0.880  0.3761E+00  0.3444E+01
   0.890  0.3738E+00  0.3447E+01
   0.900  0.3714E+00  0.3451E+01
   0.910  0.3691E+00  0.3455E+01
   0.920  0.3667E+00  0.3458E+01
   0.930  0.3644E+00  0.3462E+01
   0.940  0.3621E+00  0.3466E+01
   0.950  0.3598E+00  0.3469E+01
   0.960  0.3575E+00  0.3473E+01
   0.970  0.3552E+00  0.3476E+01
   0.980  0.3529E+00  0.3480E+01
   0.990  0.3506E+00  0.3483E+01
   1.000  0.3484E+00  0.3487E+01
   1.010  0.3461E+00  0.3490E+01
   1.020  0.3439E+00  0.3494E+01
   1.030  0.3417E+00  0.3497E+01
   1.040  0.3395E+00  0.3501E+01
   1.050  0.3373E+00  0.3504E+01
   1.060  0.3351E+00  0.3507E+01
   1.070  0.3329E+00  0.3511E+01
   1.080  0.3307E+00  0.3514E+01
   1.090  0.3286E+00  0.3517E+01
   1.100  0.3264E+00  0.3521E+01
   1.110  0.3243E+00  0.3524E+01
   1.120  0.3221E+00  0.3527E+01
   1.130  0.3200E+00  0.3530E+01
   1.140  0.3179E+00  0.3534E+01
   1.150  0.3158E+00  0.3537E+01
   1.160  0.3137E+00  0.3540E+01
   1.170  0.3116E+00  0.3543E+01
   1.180  0.3096E+00  0.3546E+01
   1.190  0.3075E+00  0.3549E+01
   1.200  0.3055E+00  0.3552E+01
   1.210  0.3035E+00  0.3555E+01
   1.220  0.3015E+00  0.3558E+01
   1.230  0.2995E+00  0.3561E+01
   1.240  0.2975E+00  0.3564E+01
   1.250  0.2956E+00  0.3567E+01
   1.260  0.2936E+00  0.3570E+01
   1.270  0.2917E+00  0.3573E+01
   1.280  0.2898E+00  0.3576E+01
   1.290  0.2880E+00  0.3579E+01
   1.300  0.2861E+00  0.3582E+01
   1.310  0.2843E+00  0.3585E+01
   1.320  0.2825E+00  0.3588E+01
   1.330  0.2807E+00  0.3590E+01
   1.340  0.2789E+00  0.3593E+01
   1.350  0.2772E+00  0.3596E+01
   1.360  0.2755E+00  0.3599E+01
   1.370  0.2738E+00  0.3601E+01
   1.380  0.2721E+00  0.3604E+01
   1.390  0.2704E+00  0.3607E+01
   1.400  0.2687E+00  0.3610E+01
   1.410  0.2671E+00  0.3612E+01
   1.420  0.2655E+00  0.3615E+01
   1.430  0.2639E+00  0.3618E+01
   1.440  0.2623E+00  0.3620E+01
   1.450  0.2608E+00  0.3623E+01
   1.460  0.2592E+00  0.3625E+01
   1.470  0.2577E+00  0.3628E+01
   1.480  0.2562E+00  0.3631E+01
   1.490  0.2547E+00  0.3633E+01
   1.500  0.2533E+00  0.3636E+01
   1.510  0.2518E+00  0.3638E+01
   1.520  0.2504E+00  0.3641E+01
   1.530  0.2490E+00  0.3643E+01
   1.540  0.2476E+00  0.3646E+01
   1.550  0.2463E+00  0.3648E+01
   1.560  0.2449E+00  0.3651E+01
   1.570  0.2436E+00  0.3653E+01
   1.580  0.2423E+00  0.3655E+01
   1.590  0.2410E+00  0.3658E+01
   1.600  0.2397E+00  0.3660E+01
   1.610  0.2385E+00  0.3663E+01
   1.620  0.2373E+00  0.3665E+01
   1.630  0.2360E+00  0.3667E+01
   1.640  0.2349E+00  0.3670E+01
   1.650  0.2337E+00  0.3672E+01
   1.660  0.2325E+00  0.3674E+01
   1.670  0.2314E+00  0.3677E+01
   1.680  0.2303E+00  0.3679E+01
   1.690  0.2292E+00  0.3681E+01
   1.700  0.2281E+00  0.3684E+01
   1.710  0.2271E+00  0.3686E+01
   1.720  0.2260E+00  0.3688E+01
   1.730  0.2250E+00  0.3690E+01
   1.740  0.2240E+00  0.3693E+01
   1.750  0.2231E+00  0.3695E+01
   1.760  0.2221E+00  0.3697E+01
   1.770  0.2211E+00  0.3699E+01
   1.780  0.2201E+00  0.3702E+01
   1.790  0.2192E+00  0.3704E+01
   1.800  0.2187E+00  0.3706E+01
   1.810  0.2189E+00  0.3708E+01
   1.820  0.2197E+00  0.3710E+01
   1.830  0.2212E+00  0.3713E+01
   1.840  0.2234E+00  0.3715E+01
   1.850  0.2263E+00  0.3717E+01
   1.860  0.2298E+00  0.3719E+01
   1.870  0.2340E+00  0.3722E+01
   1.880  0.2388E+00  0.3724E+01
   1.890  0.2443E+00  0.3726E+01
   1.900  0.2505E+00  0.3729E+01
   1.910  0.2574E+00  0.3731E+01
   1.920  0.2649E+00  0.3734E+01
   1.930  0.2731E+00  0.3737E+01
   1.940  0.2819E+00  0.3740E+01
   1.950  0.2914E+00  0.3742E+01
   1.960  0.3016E+00  0.3745E+01
   1.970  0.3125E+00  0.3748E+01
   1.980  0.3240E+00  0.3752E+01
   1.990  0.3362E+00  0.3755E+01
   2.000  0.3490E+00  0.3758E+01
   2.010  0.3625E+00  0.3762E+01
   2.020  0.3767E+00  0.3766E+01
   2.030  0.3916E+00  0.3769E+01
   2.040  0.4071E+00  0.3773E+01
   2.050  0.4233E+00  0.3778E+01
   2.060  0.4401E+00  0.3782E+01
   2.070  0.4576E+00  0.3786E+01
   2.080  0.4758E+00  0.3791E+01
   2.090  0.4947E+00  0.3796E+01
   2.100  0.5142E+00  0.3801E+01
   2.110  0.5344E+00  0.3806E+01
   2.120  0.5552E+00  0.3812E+01
   2.130  0.5767E+00  0.3817E+01
   2.140  0.5989E+00  0.3823E+01
   2.150  0.6218E+00  0.3829E+01
   2.160  0.6453E+00  0.3836E+01
   2.170  0.6695E+00  0.3842E+01
   2.180  0.6943E+00  0.3849E+01
   2.190  0.7198E+00  0.3856E+01
   2.200  0.7375E+00  0.3863E+01
   2.210  0.7554E+00  0.3871E+01
   2.220  0.7735E+00  0.3878E+01
   2.230  0.7918E+00  0.3886E+01
   2.240  0.8104E+00  0.3894E+01
   2.250  0.8291E+00  0.3902E+01
   2.260  0.8480E+00  0.3911E+01
   2.270  0.8671E+00  0.3919E+01
   2.280  0.8864E+00  0.3928E+01
   2.290  0.9060E+00  0.3937E+01
   2.300  0.9257E+00  0.3946E+01
   2.310  0.9456E+00  0.3956E+01
   2.320  0.9658E+00  0.3965E+01
   2.330  0.9861E+00  0.3975E+01
   2.340  0.1007E+01  0.3985E+01
   2.350  0.1027E+01  0.3995E+01
   2.360  0.1048E+01  0.4006E+01
   2.370  0.1069E+01  0.4016E+01
   2.380  0.1091E+01  0.4027E+01
   2.390  0.1112E+01  0.4038E+01
   2.400  0.1134E+01  0.4049E+01
   2.410  0.1156E+01  0.4061E+01
   2.420  0.1178E+01  0.4072E+01
   2.430  0.1201E+01  0.4084E+01
   2.440  0.1223E+01  0.4096E+01
   2.450  0.1246E+01  0.4109E+01
   2.460  0.1269E+01  0.4121E+01
   2.470  0.1292E+01  0.4134E+01
   2.480  0.1316E+01  0.4147E+01
   2.490  0.1340E+01  0.4160E+01
   2.500  0.1364E+01  0.4174E+01
   2.510  0.1389E+01  0.4188E+01
   2.520  0.1413E+01  0.4202E+01
   2.530  0.1438E+01  0.4216E+01
   2.540  0.1464E+01  0.4230E+01
   2.550  0.1489E+01  0.4245E+01
   2.560  0.2850E+01  0.4265E+01
   2.570  0.1649E+01  0.4288E+01
   2.580  0.1620E+01  0.4304E+01
   2.590  0.1579E+01  0.4320E+01
   2.600  0.1527E+01  0.4336E+01
   2.610  0.1462E+01  0.4351E+01
   2.620  0.1386E+01  0.4365E+01
   2.630  0.1300E+01  0.4378E+01
   2.640  0.1293E+01  0.4391E+01
   2.650  0.1287E+01  0.4404E+01
   2.660  0.1281E+01  0.4417E+01
   2.670  0.1276E+01  0.4430E+01
   2.680  0.1270E+01  0.4443E+01
   2.690  0.1265E+01  0.4455E+01
   2.700  0.1260E+01  0.4468E+01
   2.710  0.1255E+01  0.4480E+01
   2.720  0.1250E+01  0.4493E+01
   2.730  0.1245E+01  0.4505E+01
   2.740  0.1241E+01  0.4518E+01
   2.750  0.1236E+01  0.4530E+01
   2.760  0.1232E+01  0.4543E+01
   2.770  0.1229E+01  0.4555E+01
   2.780  0.1225E+01  0.4567E+01
   2.790  0.1221E+01  0.4579E+01
   2.800  0.1218E+01  0.4592E+01
   2.810  0.1215E+01  0.4604E+01
   2.820  0.1212E+01  0.4616E+01
   2.830  0.1209E+01  0.4628E+01
   2.840  0.1207E+01  0.4640E+01
   2.850  0.1205E+01  0.4652E+01
   2.860  0.1202E+01  0.4664E+01
   2.870  0.1200E+01  0.4676E+01
   2.880  0.1199E+01  0.4688E+01
   2.890  0.1197E+01  0.4700E+01
   2.900  0.1196E+01  0.4712E+01
   2.910  0.1195E+01  0.4724E+01
   2.920  0.1193E+01  0.4736E+01
   2.930  0.1193E+01  0.4748E+01
   2.940  0.1192E+01  0.4760E+01
   2.950  0.1192E+01  0.4772E+01
   2.960  0.1191E+01  0.4784E+01
   2.970  0.1191E+01  0.4796E+01
   2.980  0.1191E+01  0.4807E+01
   2.990  0.1192E+01  0.4819E+01
   3.000  0.1192E+01  0.4831E+01
   3.010  0.1193E+01  0.4843E+01
   3.020  0.1194E+01  0.4855E+01
   3.030  0.1195E+01  0.4867E+01
   3.040  0.1196E+01  0.4879E+01
   3.050  0.1197E+01  0.4891E+01
   3.060  0.1199E+01  0.4903E+01
   3.070  0.1201E+01  0.4915E+01
   3.080  0.1203E+01  0.4927E+01
   3.090  0.1205E+01  0.4939E+01
   3.100  0.1207E+01  0.4951E+01
   3.110  0.1210E+01  0.4963E+01
   3.120  0.1213E+01  0.4975E+01
   3.130  0.1216E+01  0.4987E+01
   3.140  0.1219E+01  0.5000E+01
   3.150  0.1222E+01  0.5012E+01
   3.160  0.1236E+01  0.5024E+01
   3.170  0.1252E+01  0.5037E+01
   3.180  0.1266E+01  0.5049E+01
   3.190  0.1279E+01  0.5062E+01
   3.200  0.1291E+01  0.5075E+01
   3.210  0.1302E+01  0.5088E+01
   3.220  0.1312E+01  0.5101E+01
   3.230  0.1320E+01  0.5114E+01
   3.240  0.1328E+01  0.5127E+01
   3.250  0.1334E+01  0.5140E+01
   3.260  0.1340E+01  0.5154E+01
   3.270  0.1344E+01  0.5167E+01
   3.280  0.1347E+01  0.5181E+01
   3.290  0.1350E+01  0.5194E+01
   3.300  0.1351E+01  0.5208E+01
   3.310  0.1351E+01  0.5221E+01
   3.320  0.1349E+01  0.5235E+01
   3.330  0.1347E+01  0.5248E+01
   3.340  0.1344E+01  0.5262E+01
   3.350  0.1339E+01  0.5275E+01
   3.360  0.1335E+01  0.5288E+01
   3.370  0.1330E+01  0.5302E+01
   3.380  0.1325E+01  0.5315E+01
   3.390  0.1320E+01  0.5328E+01
   3.400  0.1314E+01  0.5341E+01
   3.410  0.1309E+01  0.5355E+01
   3.420  0.1303E+01  0.5368E+01
   3.430  0.1315E+01  0.5381E+01
   3.440  0.1332E+01  0.5394E+01
   3.450  0.1351E+01  0.5407E+01
   3.460  0.1371E+01  0.5421E+01
   3.470  0.1391E+01  0.5435E+01
   3.480  0.1412E+01  0.5449E+01
   3.490  0.1433E+01  0.5463E+01
   3.500  0.1454E+01  0.5477E+01
   3.510  0.1476E+01  0.5492E+01
   3.520  0.1497E+01  0.5507E+01
   3.530  0.1520E+01  0.5522E+01
   3.540  0.1542E+01  0.5537E+01
   3.550  0.1565E+01  0.5553E+01
   3.560  0.1589E+01  0.5569E+01
   3.570  0.1612E+01  0.5585E+01
   3.580  0.1636E+01  0.5601E+01
   3.590  0.1661E+01  0.5617E+01
   3.600  0.1685E+01  0.5634E+01
   3.610  0.1710E+01  0.5651E+01
   3.620  0.1736E+01  0.5668E+01
   3.630  0.1762E+01  0.5686E+01
   3.640  0.1788E+01  0.5704E+01
   3.650  0.1803E+01  0.5722E+01
   3.660  0.1810E+01  0.5740E+01
   3.670  0.1816E+01  0.5758E+01
   3.680  0.1821E+01  0.5776E+01
   3.690  0.1825E+01  0.5794E+01
   3.700  0.1828E+01  0.5812E+01
   3.710  0.1830E+01  0.5831E+01
   3.720  0.1831E+01  0.5849E+01
   3.730  0.1831E+01  0.5867E+01
   3.740  0.1829E+01  0.5886E+01
   3.750  0.1827E+01  0.5904E+01
   3.760  0.1823E+01  0.5922E+01
   3.770  0.1818E+01  0.5940E+01
   3.780  0.1813E+01  0.5959E+01
   3.790  0.1808E+01  0.5977E+01
   3.800  0.1805E+01  0.5995E+01
   3.810  0.1802E+01  0.6013E+01
   3.820  0.1799E+01  0.6031E+01
   3.830  0.1799E+01  0.6049E+01
   3.840  0.1797E+01  0.6067E+01
   3.850  0.1794E+01  0.6085E+01
   3.860  0.1790E+01  0.6103E+01
   3.870  0.1785E+01  0.6120E+01
   3.880  0.1779E+01  0.6138E+01
   3.890  0.1771E+01  0.6156E+01
   3.900  0.1762E+01  0.6174E+01
   3.910  0.1753E+01  0.6191E+01
   3.920  0.1744E+01  0.6209E+01
   3.930  0.1735E+01  0.6226E+01
   3.940  0.1727E+01  0.6243E+01
   3.950  0.1717E+01  0.6261E+01
   3.960  0.1708E+01  0.6278E+01
   3.970  0.1698E+01  0.6295E+01
   3.980  0.1688E+01  0.6312E+01
   3.990  0.1678E+01  0.6329E+01
   4.000  0.1667E+01  0.6345E+01
   4.010  0.1657E+01  0.6362E+01
   4.020  0.1646E+01  0.6378E+01
   4.030  0.1635E+01  0.6395E+01
   4.040  0.1623E+01  0.6411E+01
   4.050  0.1611E+01  0.6427E+01
   4.060  0.1599E+01  0.6443E+01
   4.070  0.1587E+01  0.6459E+01
   4.080  0.1574E+01  0.6475E+01
   4.090  0.1562E+01  0.6491E+01
   4.100  0.1548E+01  0.6506E+01
   4.110  0.1534E+01  0.6522E+01
   4.120  0.1519E+01  0.6537E+01
   4.130  0.1503E+01  0.6552E+01
   4.140  0.1486E+01  0.6567E+01
   4.150  0.1469E+01  0.6582E+01
   4.160  0.1451E+01  0.6596E+01
   4.170  0.1440E+01  0.6611E+01
   4.180  0.1428E+01  0.6625E+01
   4.190  0.1415E+01  0.6639E+01
   4.200  0.1403E+01  0.6654E+01
   4.210  0.1394E+01  0.6667E+01
   4.220  0.1390E+01  0.6681E+01
   4.230  0.1386E+01  0.6695E+01
   4.240  0.1382E+01  0.6709E+01
   4.250  0.1378E+01  0.6723E+01
   4.260  0.1373E+01  0.6737E+01
   4.270  0.1369E+01  0.6750E+01
   4.280  0.1365E+01  0.6764E+01
   4.290  0.1361E+01  0.6778E+01
   4.300  0.1356E+01  0.6791E+01
   4.310  0.1352E+01  0.6805E+01
   4.320  0.1347E+01  0.6818E+01
   4.330  0.1343E+01  0.6832E+01
   4.340  0.1338E+01  0.6845E+01
   4.350  0.1334E+01  0.6859E+01
   4.360  0.1329E+01  0.6872E+01
   4.370  0.1324E+01  0.6885E+01
   4.380  0.1319E+01  0.6898E+01
   4.390  0.1314E+01  0.6911E+01
   4.400  0.1310E+01  0.6925E+01
   4.410  0.1305E+01  0.6938E+01
   4.420  0.1300E+01  0.6951E+01
   4.430  0.1341E+01  0.6964E+01
   4.440  0.1379E+01  0.6977E+01
   4.450  0.1404E+01  0.6991E+01
   4.460  0.1405E+01  0.7005E+01
   4.470  0.1402E+01  0.7020E+01
   4.480  0.1398E+01  0.7034E+01
   4.490  0.1394E+01  0.7047E+01
   4.500  0.1390E+01  0.7061E+01
   4.510  0.1386E+01  0.7075E+01
   4.520  0.1381E+01  0.7089E+01
   4.530  0.1376E+01  0.7103E+01
   4.540  0.1371E+01  0.7117E+01
   4.550  0.1366E+01  0.7130E+01
   4.560  0.1360E+01  0.7144E+01
   4.570  0.1354E+01  0.7158E+01
   4.580  0.1348E+01  0.7171E+01
   4.590  0.1341E+01  0.7184E+01
   4.600  0.1334E+01  0.7198E+01
   4.610  0.1327E+01  0.7211E+01
   4.620  0.1319E+01  0.7224E+01
   4.630  0.1311E+01  0.7238E+01
   4.640  0.1303E+01  0.7251E+01
   4.650  0.1295E+01  0.7264E+01
   4.660  0.1286E+01  0.7277E+01
   4.670  0.1277E+01  0.7289E+01
   4.680  0.1268E+01  0.7302E+01
   4.690  0.1258E+01  0.7315E+01
   4.700  0.1249E+01  0.7327E+01
   4.710  0.1238E+01  0.7340E+01
   4.720  0.1228E+01  0.7352E+01
   4.730  0.1217E+01  0.7364E+01
   4.740  0.1206E+01  0.7376E+01
   4.750  0.1195E+01  0.7388E+01
   4.760  0.1183E+01  0.7400E+01
   4.770  0.1171E+01  0.7412E+01
   4.780  0.1159E+01  0.7424E+01
   4.790  0.1147E+01  0.7435E+01
   4.800  0.1134E+01  0.7447E+01
   4.810  0.1121E+01  0.7458E+01
   4.820  0.1108E+01  0.7469E+01
   4.830  0.1094E+01  0.7480E+01
   4.840  0.1080E+01  0.7491E+01
   4.850  0.1066E+01  0.7502E+01
   4.860  0.1052E+01  0.7512E+01
   4.870  0.1037E+01  0.7523E+01
   4.880  0.1022E+01  0.7533E+01
   4.890  0.1006E+01  0.7543E+01
   4.900  0.9907E+00  0.7553E+01
   4.910  0.9739E+00  0.7563E+01
   4.920  0.9571E+00  0.7573E+01
   4.930  0.9401E+00  0.7582E+01
   4.940  0.9230E+00  0.7591E+01
   4.950  0.9058E+00  0.7600E+01
   4.960  0.8884E+00  0.7609E+01
   4.970  0.8710E+00  0.7618E+01
   4.980  0.8535E+00  0.7627E+01
   4.990  0.8358E+00  0.7635E+01
   5.000  0.8181E+00  0.7644E+01
   5.010  0.8005E+00  0.7652E+01
   5.020  0.7833E+00  0.7660E+01
   5.030  0.7666E+00  0.7667E+01
   5.040  0.7504E+00  0.7675E+01
   5.050  0.7348E+00  0.7682E+01
   5.060  0.7198E+00  0.7690E+01
   5.070  0.7052E+00  0.7697E+01
   5.080  0.6913E+00  0.7704E+01
   5.090  0.6778E+00  0.7711E+01
   5.100  0.6649E+00  0.7717E+01
   5.110  0.6525E+00  0.7724E+01
   5.120  0.6407E+00  0.7730E+01
   5.130  0.6294E+00  0.7737E+01
   5.140  0.6187E+00  0.7743E+01
   5.150  0.6085E+00  0.7749E+01
   5.160  0.5988E+00  0.7755E+01
   5.170  0.5897E+00  0.7761E+01
   5.180  0.5811E+00  0.7767E+01
   5.190  0.5730E+00  0.7773E+01
   5.200  0.5655E+00  0.7778E+01
   5.210  0.5581E+00  0.7784E+01
   5.220  0.5507E+00  0.7790E+01
   5.230  0.5433E+00  0.7795E+01
   5.240  0.5359E+00  0.7800E+01
   5.250  0.5285E+00  0.7806E+01
   5.260  0.5210E+00  0.7811E+01
   5.270  0.5136E+00  0.7816E+01
   5.280  0.5062E+00  0.7821E+01
   5.290  0.4987E+00  0.7826E+01
   5.300  0.4913E+00  0.7831E+01
   5.310  0.4838E+00  0.7836E+01
   5.320  0.4764E+00  0.7841E+01
   5.330  0.4689E+00  0.7846E+01
   5.340  0.4614E+00  0.7850E+01
   5.350  0.4540E+00  0.7855E+01
   5.360  0.4465E+00  0.7859E+01
   5.370  0.4390E+00  0.7864E+01
   5.380  0.4315E+00  0.7868E+01
   5.390  0.4240E+00  0.7872E+01
   5.400  0.4165E+00  0.7877E+01
   5.410  0.4090E+00  0.7881E+01
   5.420  0.4015E+00  0.7885E+01
   5.430  0.3940E+00  0.7889E+01
   5.440  0.3865E+00  0.7893E+01
   5.450  0.3789E+00  0.7897E+01
   5.460  0.3714E+00  0.7900E+01
   5.470  0.3639E+00  0.7904E+01
   5.480  0.3563E+00  0.7908E+01
   5.490  0.3488E+00  0.7911E+01
   5.500  0.3412E+00  0.7915E+01
   5.510  0.3336E+00  0.7918E+01
   5.520  0.3261E+00  0.7921E+01
   5.530  0.3185E+00  0.7924E+01
   5.540  0.3109E+00  0.7928E+01
   5.550  0.3033E+00  0.7931E+01
   5.560  0.2958E+00  0.7934E+01
   5.570  0.2882E+00  0.7937E+01
   5.580  0.2806E+00  0.7939E+01
   5.590  0.2730E+00  0.7942E+01
   5.600  0.2653E+00  0.7945E+01
   5.610  0.2577E+00  0.7947E+01
   5.620  0.2501E+00  0.7950E+01
   5.630  0.2425E+00  0.7952E+01
   5.640  0.2461E+00  0.7955E+01
   5.650  0.2512E+00  0.7957E+01
   5.660  0.2532E+00  0.7960E+01
   5.670  0.2522E+00  0.7962E+01
   5.680  0.2481E+00  0.7965E+01
   5.690  0.2410E+00  0.7967E+01
   5.700  0.2308E+00  0.7970E+01
   5.710  0.2176E+00  0.7972E+01
   5.720  0.2013E+00  0.7974E+01
   5.730  0.1820E+00  0.7976E+01
   5.740  0.1596E+00  0.7978E+01
   5.750  0.1393E+00  0.7979E+01
   5.760  0.1331E+00  0.7981E+01
   5.770  0.1271E+00  0.7982E+01
   5.780  0.1213E+00  0.7983E+01
   5.790  0.1155E+00  0.7984E+01
   5.800  0.1099E+00  0.7985E+01
   5.810  0.1045E+00  0.7986E+01
   5.820  0.9916E-01  0.7988E+01
   5.830  0.9398E-01  0.7988E+01
   5.840  0.8895E-01  0.7989E+01
   5.850  0.8405E-01  0.7990E+01
   5.860  0.7929E-01  0.7991E+01
   5.870  0.7467E-01  0.7992E+01
   5.880  0.7019E-01  0.7993E+01
   5.890  0.6584E-01  0.7993E+01
   5.900  0.6164E-01  0.7994E+01
   5.910  0.5757E-01  0.7994E+01
   5.920  0.5364E-01  0.7995E+01
   5.930  0.4986E-01  0.7996E+01
   5.940  0.4621E-01  0.7996E+01
   5.950  0.4269E-01  0.7996E+01
   5.960  0.3932E-01  0.7997E+01
   5.970  0.3609E-01  0.7997E+01
   5.980  0.3299E-01  0.7998E+01
   5.990  0.3004E-01  0.7998E+01
   6.000  0.2722E-01  0.7998E+01
   6.010  0.2454E-01  0.7998E+01
   6.020  0.2200E-01  0.7999E+01
   6.030  0.1960E-01  0.7999E+01
   6.040  0.1734E-01  0.7999E+01
   6.050  0.1521E-01  0.7999E+01
   6.060  0.1323E-01  0.7999E+01
   6.070  0.1138E-01  0.8000E+01
   6.080  0.9674E-02  0.8000E+01
   6.090  0.8105E-02  0.8000E+01
   6.100  0.6675E-02  0.8000E+01
   6.110  0.5383E-02  0.8000E+01
   6.120  0.4231E-02  0.8000E+01
   6.130  0.3217E-02  0.8000E+01
   6.140  0.2341E-02  0.8000E+01
   6.150  0.1605E-02  0.8000E+01
   6.160  0.1007E-02  0.8000E+01
   6.170  0.5476E-03  0.8000E+01
   6.180  0.2272E-03  0.8000E+01
   6.190  0.4548E-04  0.8000E+01
   6.200  0.0000E+00  0.8000E+01
   6.210  0.0000E+00  0.8000E+01
   6.220  0.0000E+00  0.8000E+01
   6.230  0.0000E+00  0.8000E+01
   6.240  0.0000E+00  0.8000E+01
   6.250  0.0000E+00  0.8000E+01
   6.260  0.0000E+00  0.8000E+01
   6.270  0.0000E+00  0.8000E+01
   6.280  0.0000E+00  0.8000E+01
   6.290  0.0000E+00  0.8000E+01
   6.300  0.0000E+00  0.8000E+01
   6.310  0.0000E+00  0.8000E+01
   6.320  0.0000E+00  0.8000E+01
   6.330  0.0000E+00  0.8000E+01
   6.340  0.0000E+00  0.8000E+01
   6.350  0.0000E+00  0.8000E+01
   6.360  0.0000E+00  0.8000E+01
   6.370  0.0000E+00  0.8000E+01
   6.380  0.0000E+00  0.8000E+01
   6.390  0.0000E+00  0.8000E+01
   6.400  0.0000E+00  0.8000E+01
   6.410  0.0000E+00  0.8000E+01
   6.420  0.0000E+00  0.8000E+01
   6.430  0.0000E+00  0.8000E+01
   6.440  0.0000E+00  0.8000E+01
   6.450  0.0000E+00  0.8000E+01
   6.460  0.0000E+00  0.8000E+01
   6.470  0.0000E+00  0.8000E+01
   6.480  0.0000E+00  0.8000E+01
   6.490  0.0000E+00  0.8000E+01
   6.500  0.0000E+00  0.8000E+01
   6.510  0.0000E+00  0.8000E+01
   6.520  0.0000E+00  0.8000E+01
   6.530  0.0000E+00  0.8000E+01
   6.540  0.0000E+00  0.8000E+01
   6.550  0.0000E+00  0.8000E+01
   6.560  0.0000E+00  0.8000E+01
   6.570  0.0000E+00  0.8000E+01
   6.580  0.0000E+00  0.8000E+01
   6.590  0.0000E+00  0.8000E+01
   6.600  0.0000E+00  0.8000E+01
   6.610  0.0000E+00  0.8000E+01
   6.620  0.0000E+00  0.8000E+01
   6.630  0.0000E+00  0.8000E+01
   6.640  0.0000E+00  0.8000E+01
   6.650  0.0000E+00  0.8000E+01
   6.660  0.0000E+00  0.8000E+01
   6.670  0.0000E+00  0.8000E+01
   6.680  0.0000E+00  0.8000E+01
   6.690  0.0000E+00  0.8000E+01
   6.700  0.0000E+00  0.8000E+01
   6.710  0.0000E+00  0.8000E+01
   6.720  0.0000E+00  0.8000E+01
   6.730  0.0000E+00  0.8000E+01
   6.740  0.0000E+00  0.8000E+01
   6.750  0.0000E+00  0.8000E+01
   6.760  0.0000E+00  0.8000E+01
   6.770  0.0000E+00  0.8000E+01
   6.780  0.0000E+00  0.8000E+01
   6.790  0.0000E+00  0.8000E+01
   6.800  0.0000E+00  0.8000E+01
   6.810  0.0000E+00  0.8000E+01
   6.820  0.0000E+00  0.8000E+01
   6.830  0.0000E+00  0.8000E+01
   6.840  0.0000E+00  0.8000E+01
   6.850  0.0000E+00  0.8000E+01
   6.860  0.0000E+00  0.8000E+01
   6.870  0.0000E+00  0.8000E+01
   6.880  0.0000E+00  0.8000E+01
   6.890  0.0000E+00  0.8000E+01
   6.900  0.0000E+00  0.8000E+01
   6.910  0.0000E+00  0.8000E+01
   6.920  0.7918E-03  0.8000E+01
   6.930  0.4037E-02  0.8000E+01
   6.940  0.8249E-02  0.8000E+01
   6.950  0.1262E-01  0.8000E+01
   6.960  0.1714E-01  0.8000E+01
   6.970  0.2181E-01  0.8001E+01
   6.980  0.2664E-01  0.8001E+01
   6.990  0.3163E-01  0.8001E+01
   7.000  0.3677E-01  0.8001E+01
   7.010  0.4206E-01  0.8002E+01
   7.020  0.4751E-01  0.8002E+01
   7.030  0.5311E-01  0.8003E+01
   7.040  0.5887E-01  0.8003E+01
   7.050  0.6478E-01  0.8004E+01
   7.060  0.7085E-01  0.8005E+01
   7.070  0.7707E-01  0.8005E+01
   7.080  0.8344E-01  0.8006E+01
   7.090  0.8997E-01  0.8007E+01
   7.100  0.9665E-01  0.8008E+01
   7.110  0.1035E+00  0.8009E+01
   7.120  0.1105E+00  0.8010E+01
   7.130  0.1176E+00  0.8011E+01
   7.140  0.1249E+00  0.8012E+01
   7.150  0.1324E+00  0.8014E+01
   7.160  0.1400E+00  0.8015E+01
   7.170  0.1478E+00  0.8016E+01
   7.180  0.1557E+00  0.8018E+01
   7.190  0.1638E+00  0.8020E+01
   7.200  0.1720E+00  0.8021E+01
   7.210  0.1804E+00  0.8023E+01
   7.220  0.1889E+00  0.8025E+01
   7.230  0.1976E+00  0.8027E+01
   7.240  0.2064E+00  0.8029E+01
   7.250  0.2154E+00  0.8031E+01
   7.260  0.2246E+00  0.8033E+01
   7.270  0.2305E+00  0.8035E+01
   7.280  0.2332E+00  0.8038E+01
   7.290  0.2359E+00  0.8040E+01
   7.300  0.2387E+00  0.8042E+01
   7.310  0.2416E+00  0.8045E+01
   7.320  0.2446E+00  0.8047E+01
   7.330  0.2477E+00  0.8050E+01
   7.340  0.2509E+00  0.8052E+01
   7.350  0.2542E+00  0.8055E+01
   7.360  0.2576E+00  0.8057E+01
   7.370  0.2611E+00  0.8060E+01
   7.380  0.2647E+00  0.8063E+01
   7.390  0.2683E+00  0.8065E+01
   7.400  0.2721E+00  0.8068E+01
   7.410  0.2760E+00  0.8071E+01
   7.420  0.2799E+00  0.8073E+01
   7.430  0.2840E+00  0.8076E+01
   7.440  0.2882E+00  0.8079E+01
   7.450  0.2924E+00  0.8082E+01
   7.460  0.2968E+00  0.8085E+01
   7.470  0.3012E+00  0.8088E+01
   7.480  0.3058E+00  0.8091E+01
   7.490  0.3104E+00  0.8094E+01
   7.500  0.3152E+00  0.8097E+01
   7.510  0.3200E+00  0.8100E+01
   7.520  0.3249E+00  0.8104E+01
   7.530  0.3300E+00  0.8107E+01
   7.540  0.3351E+00  0.8110E+01
   7.550  0.3403E+00  0.8114E+01
   7.560  0.3456E+00  0.8117E+01
   7.570  0.3510E+00  0.8120E+01
   7.580  0.3565E+00  0.8124E+01
   7.590  0.3621E+00  0.8128E+01
   7.600  0.3678E+00  0.8131E+01
   7.610  0.3736E+00  0.8135E+01
   7.620  0.3795E+00  0.8139E+01
   7.630  0.3855E+00  0.8143E+01
   7.640  0.3916E+00  0.8146E+01
   7.650  0.3978E+00  0.8150E+01
   7.660  0.4041E+00  0.8154E+01
   7.670  0.4105E+00  0.8158E+01
   7.680  0.4169E+00  0.8163E+01
   7.690  0.4235E+00  0.8167E+01
   7.700  0.4302E+00  0.8171E+01
   7.710  0.4369E+00  0.8175E+01
   7.720  0.4438E+00  0.8180E+01
   7.730  0.4507E+00  0.8184E+01
   7.740  0.4579E+00  0.8189E+01
   7.750  0.4659E+00  0.8193E+01
   7.760  0.4750E+00  0.8198E+01
   7.770  0.4852E+00  0.8203E+01
   7.780  0.4961E+00  0.8208E+01
   7.790  0.5075E+00  0.8213E+01
   7.800  0.5194E+00  0.8218E+01
   7.810  0.5319E+00  0.8223E+01
   7.820  0.5449E+00  0.8229E+01
   7.830  0.5583E+00  0.8234E+01
   7.840  0.5724E+00  0.8240E+01
   7.850  0.5869E+00  0.8246E+01
   7.860  0.6020E+00  0.8252E+01
   7.870  0.6175E+00  0.8258E+01
   7.880  0.6336E+00  0.8264E+01
   7.890  0.6503E+00  0.8270E+01
   7.900  0.6674E+00  0.8277E+01
   7.910  0.6892E+00  0.8284E+01
   7.920  0.7176E+00  0.8291E+01
   7.930  0.7502E+00  0.8298E+01
   7.940  0.7871E+00  0.8306E+01
   7.950  0.8283E+00  0.8314E+01
   7.960  0.8737E+00  0.8322E+01
   7.970  0.9212E+00  0.8331E+01
   7.980  0.9675E+00  0.8341E+01
   7.990  0.1012E+01  0.8351E+01
   8.000  0.1056E+01  0.8361E+01
   8.010  0.1099E+01  0.8372E+01
   8.020  0.1140E+01  0.8383E+01
   8.030  0.1180E+01  0.8395E+01
   8.040  0.1219E+01  0.8407E+01
   8.050  0.1256E+01  0.8419E+01
   8.060  0.1292E+01  0.8432E+01
   8.070  0.1327E+01  0.8445E+01
   8.080  0.1361E+01  0.8458E+01
   8.090  0.1394E+01  0.8472E+01
   8.100  0.1425E+01  0.8486E+01
   8.110  0.1455E+01  0.8500E+01
   8.120  0.1484E+01  0.8515E+01
   8.130  0.1511E+01  0.8530E+01
   8.140  0.1537E+01  0.8545E+01
   8.150  0.1562E+01  0.8561E+01
   8.160  0.1586E+01  0.8577E+01
   8.170  0.1601E+01  0.8593E+01
   8.180  0.1609E+01  0.8609E+01
   8.190  0.1617E+01  0.8625E+01
   8.200  0.1625E+01  0.8641E+01
   8.210  0.1634E+01  0.8657E+01
   8.220  0.1643E+01  0.8674E+01
   8.230  0.1653E+01  0.8690E+01
   8.240  0.1663E+01  0.8707E+01
   8.250  0.1679E+01  0.8723E+01
   8.260  0.1695E+01  0.8740E+01
   8.270  0.1710E+01  0.8757E+01
   8.280  0.1725E+01  0.8774E+01
   8.290  0.1738E+01  0.8792E+01
   8.300  0.1751E+01  0.8809E+01
   8.310  0.1763E+01  0.8827E+01
   8.320  0.1774E+01  0.8845E+01
   8.330  0.1784E+01  0.8862E+01
   8.340  0.1794E+01  0.8880E+01
   8.350  0.1802E+01  0.8898E+01
   8.360  0.1809E+01  0.8916E+01
   8.370  0.1816E+01  0.8934E+01
   8.380  0.1822E+01  0.8953E+01
   8.390  0.1826E+01  0.8971E+01
   8.400  0.1830E+01  0.8989E+01
   8.410  0.1833E+01  0.9007E+01
   8.420  0.1836E+01  0.9026E+01
   8.430  0.1837E+01  0.9044E+01
   8.440  0.1837E+01  0.9062E+01
   8.450  0.1837E+01  0.9081E+01
   8.460  0.1835E+01  0.9099E+01
   8.470  0.1833E+01  0.9118E+01
   8.480  0.1830E+01  0.9136E+01
   8.490  0.1826E+01  0.9154E+01
   8.500  0.1821E+01  0.9172E+01
   8.510  0.1815E+01  0.9191E+01
   8.520  0.1808E+01  0.9209E+01
   8.530  0.1801E+01  0.9227E+01
   8.540  0.1792E+01  0.9245E+01
   8.550  0.1784E+01  0.9263E+01
   8.560  0.1778E+01  0.9280E+01
   8.570  0.1772E+01  0.9298E+01
   8.580  0.1765E+01  0.9316E+01
   8.590  0.1756E+01  0.9333E+01
   8.600  0.1747E+01  0.9351E+01
   8.610  0.1736E+01  0.9368E+01
   8.620  0.1725E+01  0.9386E+01
   8.630  0.1712E+01  0.9403E+01
   8.640  0.1698E+01  0.9420E+01
   8.650  0.1683E+01  0.9437E+01
   8.660  0.1669E+01  0.9454E+01
   8.670  0.1655E+01  0.9470E+01
   8.680  0.1641E+01  0.9487E+01
   8.690  0.1627E+01  0.9503E+01
   8.700  0.1612E+01  0.9519E+01
   8.710  0.1598E+01  0.9535E+01
   8.720  0.1583E+01  0.9551E+01
   8.730  0.1569E+01  0.9567E+01
   8.740  0.1554E+01  0.9583E+01
   8.750  0.1539E+01  0.9598E+01
   8.760  0.1524E+01  0.9613E+01
   8.770  0.1509E+01  0.9628E+01
   8.780  0.1495E+01  0.9643E+01
   8.790  0.1480E+01  0.9658E+01
   8.800  0.1466E+01  0.9673E+01
   8.810  0.1453E+01  0.9688E+01
   8.820  0.1439E+01  0.9702E+01
   8.830  0.1426E+01  0.9716E+01
   8.840  0.1413E+01  0.9731E+01
   8.850  0.1401E+01  0.9745E+01
   8.860  0.1389E+01  0.9759E+01
   8.870  0.1377E+01  0.9773E+01
   8.880  0.1365E+01  0.9786E+01
   8.890  0.1354E+01  0.9800E+01
   8.900  0.1343E+01  0.9813E+01
   8.910  0.1332E+01  0.9827E+01
   8.920  0.1420E+01  0.9840E+01
   8.930  0.1824E+01  0.9857E+01
   8.940  0.1788E+01  0.9875E+01
   8.950  0.1314E+01  0.9891E+01
   8.960  0.1295E+01  0.9904E+01
   8.970  0.1281E+01  0.9917E+01
   8.980  0.1268E+01  0.9930E+01
   8.990  0.1254E+01  0.9942E+01
   9.000  0.1240E+01  0.9955E+01
   9.010  0.1226E+01  0.9967E+01
   9.020  0.1211E+01  0.9979E+01
   9.030  0.1197E+01  0.9991E+01
   9.040  0.1182E+01  0.1000E+02
   9.050  0.1168E+01  0.1001E+02
   9.060  0.1153E+01  0.1003E+02
   9.070  0.1138E+01  0.1004E+02
   9.080  0.1123E+01  0.1005E+02
   9.090  0.1109E+01  0.1006E+02
   9.100  0.1095E+01  0.1007E+02
   9.110  0.1081E+01  0.1008E+02
   9.120  0.1068E+01  0.1009E+02
   9.130  0.1054E+01  0.1010E+02
   9.140  0.1041E+01  0.1011E+02
   9.150  0.1028E+01  0.1012E+02
   9.160  0.1016E+01  0.1013E+02
   9.170  0.1004E+01  0.1014E+02
   9.180  0.9915E+00  0.1015E+02
   9.190  0.9797E+00  0.1016E+02
   9.200  0.9681E+00  0.1017E+02
   9.210  0.9568E+00  0.1018E+02
   9.220  0.9457E+00  0.1019E+02
   9.230  0.9349E+00  0.1020E+02
   9.240  0.9250E+00  0.1021E+02
   9.250  0.9191E+00  0.1022E+02
   9.260  0.9134E+00  0.1023E+02
   9.270  0.9078E+00  0.1024E+02
   9.280  0.9025E+00  0.1025E+02
   9.290  0.8974E+00  0.1026E+02
   9.300  0.8925E+00  0.1027E+02
   9.310  0.8879E+00  0.1028E+02
   9.320  0.8834E+00  0.1028E+02
   9.330  0.8791E+00  0.1029E+02
   9.340  0.8751E+00  0.1030E+02
   9.350  0.8713E+00  0.1031E+02
   9.360  0.8676E+00  0.1032E+02
   9.370  0.8642E+00  0.1033E+02
   9.380  0.8610E+00  0.1034E+02
   9.390  0.8580E+00  0.1035E+02
   9.400  0.8552E+00  0.1035E+02
   9.410  0.8529E+00  0.1036E+02
   9.420  0.8535E+00  0.1037E+02
   9.430  0.8546E+00  0.1038E+02
   9.440  0.8562E+00  0.1039E+02
   9.450  0.8583E+00  0.1040E+02
   9.460  0.8610E+00  0.1041E+02
   9.470  0.8641E+00  0.1041E+02
   9.480  0.8677E+00  0.1042E+02
   9.490  0.8719E+00  0.1043E+02
   9.500  0.8766E+00  0.1044E+02
   9.510  0.8817E+00  0.1045E+02
   9.520  0.8874E+00  0.1046E+02
   9.530  0.8936E+00  0.1047E+02
   9.540  0.9003E+00  0.1048E+02
   9.550  0.9080E+00  0.1048E+02
   9.560  0.9203E+00  0.1049E+02
   9.570  0.9417E+00  0.1050E+02
   9.580  0.9647E+00  0.1051E+02
   9.590  0.9893E+00  0.1052E+02
   9.600  0.1016E+01  0.1053E+02
   9.610  0.1043E+01  0.1054E+02
   9.620  0.1073E+01  0.1055E+02
   9.630  0.1104E+01  0.1056E+02
   9.640  0.1137E+01  0.1058E+02
   9.650  0.1171E+01  0.1059E+02
   9.660  0.1208E+01  0.1060E+02
   9.670  0.1245E+01  0.1061E+02
   9.680  0.1285E+01  0.1062E+02
   9.690  0.1326E+01  0.1064E+02
   9.700  0.1368E+01  0.1065E+02
   9.710  0.1412E+01  0.1066E+02
   9.720  0.1457E+01  0.1068E+02
   9.730  0.1501E+01  0.1069E+02
   9.740  0.1546E+01  0.1071E+02
   9.750  0.1590E+01  0.1072E+02
   9.760  0.1638E+01  0.1074E+02
   9.770  0.1698E+01  0.1076E+02
   9.780  0.1756E+01  0.1077E+02
   9.790  0.1813E+01  0.1079E+02
   9.800  0.1868E+01  0.1081E+02
   9.810  0.1921E+01  0.1083E+02
   9.820  0.1972E+01  0.1085E+02
   9.830  0.2021E+01  0.1087E+02
   9.840  0.2069E+01  0.1089E+02
   9.850  0.2116E+01  0.1091E+02
   9.860  0.2160E+01  0.1093E+02
   9.870  0.2203E+01  0.1095E+02
   9.880  0.2244E+01  0.1098E+02
   9.890  0.2283E+01  0.1100E+02
   9.900  0.2321E+01  0.1102E+02
   9.910  0.2357E+01  0.1104E+02
   9.920  0.2389E+01  0.1107E+02
   9.930  0.2414E+01  0.1109E+02
   9.940  0.2438E+01  0.1112E+02
   9.950  0.2460E+01  0.1114E+02
   9.960  0.2482E+01  0.1117E+02
   9.970  0.2502E+01  0.1119E+02
   9.980  0.2521E+01  0.1122E+02
   9.990  0.2538E+01  0.1124E+02
  10.000  0.2554E+01  0.1127E+02
