#  E (eV)   dos(E)     Int dos(E) EFermi =   13.409 eV
  -6.000  0.2128E+00  0.3194E+00
  -5.990  0.2129E+00  0.3215E+00
  -5.980  0.2129E+00  0.3237E+00
  -5.970  0.2132E+00  0.3258E+00
  -5.960  0.2137E+00  0.3279E+00
  -5.950  0.2142E+00  0.3301E+00
  -5.940  0.2146E+00  0.3322E+00
  -5.930  0.2151E+00  0.3344E+00
  -5.920  0.2156E+00  0.3365E+00
  -5.910  0.2160E+00  0.3387E+00
  -5.900  0.2165E+00  0.3408E+00
  -5.890  0.2169E+00  0.3430E+00
  -5.880  0.2174E+00  0.3452E+00
  -5.870  0.2179E+00  0.3473E+00
  -5.860  0.2183E+00  0.3495E+00
  -5.850  0.2188E+00  0.3517E+00
  -5.840  0.2192E+00  0.3539E+00
  -5.830  0.2197E+00  0.3561E+00
  -5.820  0.2201E+00  0.3583E+00
  -5.810  0.2206E+00  0.3605E+00
  -5.800  0.2210E+00  0.3627E+00
  -5.790  0.2214E+00  0.3649E+00
  -5.780  0.2219E+00  0.3671E+00
  -5.770  0.2223E+00  0.3694E+00
  -5.760  0.2228E+00  0.3716E+00
  -5.750  0.2232E+00  0.3738E+00
  -5.740  0.2236E+00  0.3760E+00
  -5.730  0.2241E+00  0.3783E+00
  -5.720  0.2245E+00  0.3805E+00
  -5.710  0.2249E+00  0.3828E+00
  -5.700  0.2254E+00  0.3850E+00
  -5.690  0.2258E+00  0.3873E+00
  -5.680  0.2262E+00  0.3895E+00
  -5.670  0.2267E+00  0.3918E+00
  -5.660  0.2271E+00  0.3941E+00
  -5.650  0.2275E+00  0.3963E+00
  -5.640  0.2279E+00  0.3986E+00
  -5.630  0.2284E+00  0.4009E+00
  -5.620  0.2288E+00  0.4032E+00
  -5.610  0.2292E+00  0.4055E+00
  -5.600  0.2296E+00  0.4078E+00
  -5.590  0.2300E+00  0.4101E+00
  -5.580  0.2304E+00  0.4124E+00
  -5.570  0.2308E+00  0.4147E+00
  -5.560  0.2313E+00  0.4170E+00
  -5.550  0.2317E+00  0.4193E+00
  -5.540  0.2321E+00  0.4216E+00
  -5.530  0.2325E+00  0.4239E+00
  -5.520  0.2329E+00  0.4263E+00
  -5.510  0.2333E+00  0.4286E+00
  -5.500  0.2337E+00  0.4309E+00
  -5.490  0.2341E+00  0.4333E+00
  -5.480  0.2345E+00  0.4356E+00
  -5.470  0.2347E+00  0.4380E+00
  -5.460  0.2350E+00  0.4403E+00
  -5.450  0.2352E+00  0.4427E+00
  -5.440  0.2355E+00  0.4450E+00
  -5.430  0.2357E+00  0.4474E+00
  -5.420  0.2360E+00  0.4497E+00
  -5.410  0.2363E+00  0.4521E+00
  -5.400  0.2366E+00  0.4545E+00
  -5.390  0.2370E+00  0.4568E+00
  -5.380  0.2373E+00  0.4592E+00
  -5.370  0.2377E+00  0.4616E+00
  -5.360  0.2381E+00  0.4640E+00
  -5.350  0.2385E+00  0.4663E+00
  -5.340  0.2389E+00  0.4687E+00
  -5.330  0.2393E+00  0.4711E+00
  -5.320  0.2397E+00  0.4735E+00
  -5.310  0.2402E+00  0.4759E+00
  -5.300  0.2406E+00  0.4783E+00
  -5.290  0.2411E+00  0.4807E+00
  -5.280  0.2416E+00  0.4831E+00
  -5.270  0.2421E+00  0.4856E+00
  -5.260  0.2427E+00  0.4880E+00
  -5.250  0.2432E+00  0.4904E+00
  -5.240  0.2438E+00  0.4928E+00
  -5.230  0.2443E+00  0.4953E+00
  -5.220  0.2449E+00  0.4977E+00
  -5.210  0.2455E+00  0.5002E+00
  -5.200  0.2461E+00  0.5026E+00
  -5.190  0.2467E+00  0.5051E+00
  -5.180  0.2474E+00  0.5076E+00
  -5.170  0.2480E+00  0.5100E+00
  -5.160  0.2487E+00  0.5125E+00
  -5.150  0.2494E+00  0.5150E+00
  -5.140  0.2501E+00  0.5175E+00
  -5.130  0.2508E+00  0.5200E+00
  -5.120  0.2515E+00  0.5225E+00
  -5.110  0.2523E+00  0.5251E+00
  -5.100  0.2530E+00  0.5276E+00
  -5.090  0.2538E+00  0.5301E+00
  -5.080  0.2545E+00  0.5327E+00
  -5.070  0.2553E+00  0.5352E+00
  -5.060  0.2561E+00  0.5378E+00
  -5.050  0.2570E+00  0.5403E+00
  -5.040  0.2578E+00  0.5429E+00
  -5.030  0.2586E+00  0.5455E+00
  -5.020  0.2594E+00  0.5481E+00
  -5.010  0.2602E+00  0.5507E+00
  -5.000  0.2611E+00  0.5533E+00
  -4.990  0.2619E+00  0.5559E+00
  -4.980  0.2627E+00  0.5585E+00
  -4.970  0.2636E+00  0.5612E+00
  -4.960  0.2644E+00  0.5638E+00
  -4.950  0.2653E+00  0.5664E+00
  -4.940  0.2661E+00  0.5691E+00
  -4.930  0.2670E+00  0.5718E+00
  -4.920  0.2678E+00  0.5744E+00
  -4.910  0.2687E+00  0.5771E+00
  -4.900  0.2696E+00  0.5798E+00
  -4.890  0.2705E+00  0.5825E+00
  -4.880  0.2713E+00  0.5852E+00
  -4.870  0.2722E+00  0.5879E+00
  -4.860  0.2731E+00  0.5907E+00
  -4.850  0.2740E+00  0.5934E+00
  -4.840  0.2749E+00  0.5961E+00
  -4.830  0.2758E+00  0.5989E+00
  -4.820  0.2767E+00  0.6017E+00
  -4.810  0.2776E+00  0.6044E+00
  -4.800  0.2785E+00  0.6072E+00
  -4.790  0.2794E+00  0.6100E+00
  -4.780  0.2803E+00  0.6128E+00
  -4.770  0.2812E+00  0.6156E+00
  -4.760  0.2822E+00  0.6184E+00
  -4.750  0.2831E+00  0.6212E+00
  -4.740  0.2840E+00  0.6241E+00
  -4.730  0.2850E+00  0.6269E+00
  -4.720  0.2859E+00  0.6298E+00
  -4.710  0.2868E+00  0.6326E+00
  -4.700  0.2878E+00  0.6355E+00
  -4.690  0.2887E+00  0.6384E+00
  -4.680  0.2897E+00  0.6413E+00
  -4.670  0.2907E+00  0.6442E+00
  -4.660  0.2916E+00  0.6471E+00
  -4.650  0.2926E+00  0.6500E+00
  -4.640  0.2936E+00  0.6530E+00
  -4.630  0.2945E+00  0.6559E+00
  -4.620  0.2955E+00  0.6589E+00
  -4.610  0.2965E+00  0.6618E+00
  -4.600  0.2975E+00  0.6648E+00
  -4.590  0.2985E+00  0.6678E+00
  -4.580  0.2995E+00  0.6708E+00
  -4.570  0.3005E+00  0.6737E+00
  -4.560  0.3015E+00  0.6768E+00
  -4.550  0.3025E+00  0.6798E+00
  -4.540  0.3035E+00  0.6828E+00
  -4.530  0.3045E+00  0.6858E+00
  -4.520  0.3055E+00  0.6889E+00
  -4.510  0.3065E+00  0.6920E+00
  -4.500  0.3076E+00  0.6950E+00
  -4.490  0.3086E+00  0.6981E+00
  -4.480  0.3096E+00  0.7012E+00
  -4.470  0.3106E+00  0.7043E+00
  -4.460  0.3117E+00  0.7074E+00
  -4.450  0.3127E+00  0.7105E+00
  -4.440  0.3137E+00  0.7137E+00
  -4.430  0.3148E+00  0.7168E+00
  -4.420  0.3158E+00  0.7200E+00
  -4.410  0.3168E+00  0.7231E+00
  -4.400  0.3178E+00  0.7263E+00
  -4.390  0.3189E+00  0.7295E+00
  -4.380  0.3199E+00  0.7327E+00
  -4.370  0.3209E+00  0.7359E+00
  -4.360  0.3219E+00  0.7391E+00
  -4.350  0.3230E+00  0.7423E+00
  -4.340  0.3240E+00  0.7456E+00
  -4.330  0.3250E+00  0.7488E+00
  -4.320  0.3260E+00  0.7521E+00
  -4.310  0.3270E+00  0.7553E+00
  -4.300  0.3281E+00  0.7586E+00
  -4.290  0.3291E+00  0.7619E+00
  -4.280  0.3301E+00  0.7652E+00
  -4.270  0.3311E+00  0.7685E+00
  -4.260  0.3321E+00  0.7718E+00
  -4.250  0.3331E+00  0.7751E+00
  -4.240  0.3342E+00  0.7785E+00
  -4.230  0.3352E+00  0.7818E+00
  -4.220  0.3362E+00  0.7852E+00
  -4.210  0.3372E+00  0.7885E+00
  -4.200  0.3382E+00  0.7919E+00
  -4.190  0.3392E+00  0.7953E+00
  -4.180  0.3402E+00  0.7987E+00
  -4.170  0.3413E+00  0.8021E+00
  -4.160  0.3423E+00  0.8055E+00
  -4.150  0.3433E+00  0.8089E+00
  -4.140  0.3443E+00  0.8124E+00
  -4.130  0.3453E+00  0.8158E+00
  -4.120  0.3474E+00  0.8193E+00
  -4.110  0.3516E+00  0.8228E+00
  -4.100  0.3579E+00  0.8263E+00
  -4.090  0.3663E+00  0.8300E+00
  -4.080  0.3767E+00  0.8337E+00
  -4.070  0.3817E+00  0.8375E+00
  -4.060  0.3837E+00  0.8413E+00
  -4.050  0.3857E+00  0.8451E+00
  -4.040  0.3877E+00  0.8490E+00
  -4.030  0.3896E+00  0.8529E+00
  -4.020  0.3915E+00  0.8568E+00
  -4.010  0.3933E+00  0.8607E+00
  -4.000  0.3951E+00  0.8647E+00
  -3.990  0.3969E+00  0.8686E+00
  -3.980  0.3986E+00  0.8726E+00
  -3.970  0.4003E+00  0.8766E+00
  -3.960  0.4020E+00  0.8806E+00
  -3.950  0.4036E+00  0.8846E+00
  -3.940  0.4053E+00  0.8887E+00
  -3.930  0.4068E+00  0.8927E+00
  -3.920  0.4084E+00  0.8968E+00
  -3.910  0.4099E+00  0.9009E+00
  -3.900  0.4113E+00  0.9050E+00
  -3.890  0.4128E+00  0.9091E+00
  -3.880  0.4142E+00  0.9133E+00
  -3.870  0.4155E+00  0.9174E+00
  -3.860  0.4169E+00  0.9216E+00
  -3.850  0.4182E+00  0.9258E+00
  -3.840  0.4194E+00  0.9299E+00
  -3.830  0.4206E+00  0.9341E+00
  -3.820  0.4218E+00  0.9384E+00
  -3.810  0.4230E+00  0.9426E+00
  -3.800  0.4241E+00  0.9468E+00
  -3.790  0.4252E+00  0.9511E+00
  -3.780  0.4263E+00  0.9553E+00
  -3.770  0.4273E+00  0.9596E+00
  -3.760  0.4283E+00  0.9639E+00
  -3.750  0.4293E+00  0.9682E+00
  -3.740  0.4302E+00  0.9725E+00
  -3.730  0.4311E+00  0.9768E+00
  -3.720  0.4320E+00  0.9811E+00
  -3.710  0.4328E+00  0.9854E+00
  -3.700  0.4336E+00  0.9897E+00
  -3.690  0.4343E+00  0.9941E+00
  -3.680  0.4351E+00  0.9984E+00
  -3.670  0.4358E+00  0.1003E+01
  -3.660  0.4364E+00  0.1007E+01
  -3.650  0.4370E+00  0.1012E+01
  -3.640  0.4376E+00  0.1016E+01
  -3.630  0.4382E+00  0.1020E+01
  -3.620  0.4387E+00  0.1025E+01
  -3.610  0.4392E+00  0.1029E+01
  -3.600  0.4397E+00  0.1033E+01
  -3.590  0.4401E+00  0.1038E+01
  -3.580  0.4405E+00  0.1042E+01
  -3.570  0.4408E+00  0.1047E+01
  -3.560  0.4412E+00  0.1051E+01
  -3.550  0.4414E+00  0.1055E+01
  -3.540  0.4417E+00  0.1060E+01
  -3.530  0.4419E+00  0.1064E+01
  -3.520  0.4421E+00  0.1069E+01
  -3.510  0.4423E+00  0.1073E+01
  -3.500  0.4424E+00  0.1078E+01
  -3.490  0.4425E+00  0.1082E+01
  -3.480  0.4425E+00  0.1086E+01
  -3.470  0.4425E+00  0.1091E+01
  -3.460  0.4425E+00  0.1095E+01
  -3.450  0.4424E+00  0.1100E+01
  -3.440  0.4423E+00  0.1104E+01
  -3.430  0.4421E+00  0.1109E+01
  -3.420  0.4340E+00  0.1113E+01
  -3.410  0.4260E+00  0.1117E+01
  -3.400  0.4250E+00  0.1121E+01
  -3.390  0.4241E+00  0.1126E+01
  -3.380  0.4231E+00  0.1130E+01
  -3.370  0.4222E+00  0.1134E+01
  -3.360  0.4213E+00  0.1138E+01
  -3.350  0.4205E+00  0.1143E+01
  -3.340  0.4197E+00  0.1147E+01
  -3.330  0.4189E+00  0.1151E+01
  -3.320  0.4181E+00  0.1155E+01
  -3.310  0.4174E+00  0.1159E+01
  -3.300  0.4167E+00  0.1164E+01
  -3.290  0.4160E+00  0.1168E+01
  -3.280  0.4153E+00  0.1172E+01
  -3.270  0.4147E+00  0.1176E+01
  -3.260  0.4141E+00  0.1180E+01
  -3.250  0.4136E+00  0.1184E+01
  -3.240  0.4130E+00  0.1188E+01
  -3.230  0.4125E+00  0.1193E+01
  -3.220  0.4120E+00  0.1197E+01
  -3.210  0.4116E+00  0.1201E+01
  -3.200  0.4112E+00  0.1205E+01
  -3.190  0.4108E+00  0.1209E+01
  -3.180  0.4104E+00  0.1213E+01
  -3.170  0.4101E+00  0.1217E+01
  -3.160  0.4098E+00  0.1221E+01
  -3.150  0.4095E+00  0.1225E+01
  -3.140  0.4093E+00  0.1229E+01
  -3.130  0.4091E+00  0.1234E+01
  -3.120  0.4089E+00  0.1238E+01
  -3.110  0.4087E+00  0.1242E+01
  -3.100  0.4086E+00  0.1246E+01
  -3.090  0.4085E+00  0.1250E+01
  -3.080  0.4085E+00  0.1254E+01
  -3.070  0.4084E+00  0.1258E+01
  -3.060  0.4083E+00  0.1262E+01
  -3.050  0.4083E+00  0.1266E+01
  -3.040  0.4082E+00  0.1270E+01
  -3.030  0.4082E+00  0.1274E+01
  -3.020  0.4082E+00  0.1279E+01
  -3.010  0.4081E+00  0.1283E+01
  -3.000  0.4081E+00  0.1287E+01
  -2.990  0.4081E+00  0.1291E+01
  -2.980  0.4080E+00  0.1295E+01
  -2.970  0.4080E+00  0.1299E+01
  -2.960  0.4080E+00  0.1303E+01
  -2.950  0.4080E+00  0.1307E+01
  -2.940  0.4080E+00  0.1311E+01
  -2.930  0.4080E+00  0.1315E+01
  -2.920  0.4080E+00  0.1319E+01
  -2.910  0.4080E+00  0.1323E+01
  -2.900  0.4080E+00  0.1327E+01
  -2.890  0.4080E+00  0.1332E+01
  -2.880  0.4080E+00  0.1336E+01
  -2.870  0.4081E+00  0.1340E+01
  -2.860  0.4081E+00  0.1344E+01
  -2.850  0.4081E+00  0.1348E+01
  -2.840  0.4081E+00  0.1352E+01
  -2.830  0.4082E+00  0.1356E+01
  -2.820  0.4082E+00  0.1360E+01
  -2.810  0.4083E+00  0.1364E+01
  -2.800  0.4083E+00  0.1368E+01
  -2.790  0.4084E+00  0.1372E+01
  -2.780  0.4084E+00  0.1376E+01
  -2.770  0.4085E+00  0.1381E+01
  -2.760  0.4085E+00  0.1385E+01
  -2.750  0.4086E+00  0.1389E+01
  -2.740  0.4087E+00  0.1393E+01
  -2.730  0.4088E+00  0.1397E+01
  -2.720  0.4088E+00  0.1401E+01
  -2.710  0.4089E+00  0.1405E+01
  -2.700  0.4090E+00  0.1409E+01
  -2.690  0.4091E+00  0.1413E+01
  -2.680  0.4092E+00  0.1417E+01
  -2.670  0.4093E+00  0.1421E+01
  -2.660  0.4094E+00  0.1426E+01
  -2.650  0.4095E+00  0.1430E+01
  -2.640  0.4096E+00  0.1434E+01
  -2.630  0.4098E+00  0.1438E+01
  -2.620  0.4099E+00  0.1442E+01
  -2.610  0.4100E+00  0.1446E+01
  -2.600  0.4101E+00  0.1450E+01
  -2.590  0.4103E+00  0.1454E+01
  -2.580  0.4104E+00  0.1458E+01
  -2.570  0.4105E+00  0.1462E+01
  -2.560  0.4107E+00  0.1467E+01
  -2.550  0.4108E+00  0.1471E+01
  -2.540  0.4110E+00  0.1475E+01
  -2.530  0.4112E+00  0.1479E+01
  -2.520  0.4113E+00  0.1483E+01
  -2.510  0.4115E+00  0.1487E+01
  -2.500  0.4116E+00  0.1491E+01
  -2.490  0.4113E+00  0.1495E+01
  -2.480  0.4051E+00  0.1499E+01
  -2.470  0.4007E+00  0.1503E+01
  -2.460  0.3998E+00  0.1507E+01
  -2.450  0.3991E+00  0.1511E+01
  -2.440  0.3984E+00  0.1515E+01
  -2.430  0.3978E+00  0.1519E+01
  -2.420  0.3972E+00  0.1523E+01
  -2.410  0.3967E+00  0.1527E+01
  -2.400  0.3962E+00  0.1531E+01
  -2.390  0.3959E+00  0.1535E+01
  -2.380  0.3955E+00  0.1539E+01
  -2.370  0.3953E+00  0.1543E+01
  -2.360  0.3951E+00  0.1547E+01
  -2.350  0.3950E+00  0.1551E+01
  -2.340  0.3949E+00  0.1555E+01
  -2.330  0.3949E+00  0.1559E+01
  -2.320  0.3950E+00  0.1563E+01
  -2.310  0.3951E+00  0.1567E+01
  -2.300  0.3953E+00  0.1571E+01
  -2.290  0.3956E+00  0.1575E+01
  -2.280  0.3959E+00  0.1579E+01
  -2.270  0.3963E+00  0.1583E+01
  -2.260  0.3968E+00  0.1587E+01
  -2.250  0.3973E+00  0.1591E+01
  -2.240  0.3979E+00  0.1595E+01
  -2.230  0.3972E+00  0.1599E+01
  -2.220  0.3960E+00  0.1603E+01
  -2.210  0.3950E+00  0.1607E+01
  -2.200  0.3939E+00  0.1610E+01
  -2.190  0.3929E+00  0.1614E+01
  -2.180  0.3919E+00  0.1618E+01
  -2.170  0.3909E+00  0.1622E+01
  -2.160  0.3900E+00  0.1626E+01
  -2.150  0.3891E+00  0.1630E+01
  -2.140  0.3882E+00  0.1634E+01
  -2.130  0.3871E+00  0.1638E+01
  -2.120  0.3859E+00  0.1642E+01
  -2.110  0.3847E+00  0.1646E+01
  -2.100  0.3835E+00  0.1649E+01
  -2.090  0.3823E+00  0.1653E+01
  -2.080  0.3811E+00  0.1657E+01
  -2.070  0.3798E+00  0.1661E+01
  -2.060  0.3785E+00  0.1665E+01
  -2.050  0.3773E+00  0.1668E+01
  -2.040  0.3759E+00  0.1672E+01
  -2.030  0.3746E+00  0.1676E+01
  -2.020  0.3733E+00  0.1680E+01
  -2.010  0.3719E+00  0.1683E+01
  -2.000  0.3706E+00  0.1687E+01
  -1.990  0.3692E+00  0.1691E+01
  -1.980  0.3678E+00  0.1694E+01
  -1.970  0.3663E+00  0.1698E+01
  -1.960  0.3649E+00  0.1702E+01
  -1.950  0.3635E+00  0.1705E+01
  -1.940  0.3620E+00  0.1709E+01
  -1.930  0.3605E+00  0.1713E+01
  -1.920  0.3590E+00  0.1716E+01
  -1.910  0.3575E+00  0.1720E+01
  -1.900  0.3559E+00  0.1723E+01
  -1.890  0.3544E+00  0.1727E+01
  -1.880  0.3528E+00  0.1730E+01
  -1.870  0.3512E+00  0.1734E+01
  -1.860  0.3496E+00  0.1738E+01
  -1.850  0.3480E+00  0.1741E+01
  -1.840  0.3463E+00  0.1744E+01
  -1.830  0.3447E+00  0.1748E+01
  -1.820  0.3430E+00  0.1751E+01
  -1.810  0.3413E+00  0.1755E+01
  -1.800  0.3396E+00  0.1758E+01
  -1.790  0.3379E+00  0.1762E+01
  -1.780  0.3361E+00  0.1765E+01
  -1.770  0.3344E+00  0.1768E+01
  -1.760  0.3326E+00  0.1772E+01
  -1.750  0.3308E+00  0.1775E+01
  -1.740  0.3290E+00  0.1778E+01
  -1.730  0.3272E+00  0.1782E+01
  -1.720  0.3253E+00  0.1785E+01
  -1.710  0.3235E+00  0.1788E+01
  -1.700  0.3216E+00  0.1791E+01
  -1.690  0.3197E+00  0.1794E+01
  -1.680  0.3178E+00  0.1798E+01
  -1.670  0.3159E+00  0.1801E+01
  -1.660  0.3139E+00  0.1804E+01
  -1.650  0.3120E+00  0.1807E+01
  -1.640  0.3100E+00  0.1810E+01
  -1.630  0.3080E+00  0.1813E+01
  -1.620  0.3060E+00  0.1816E+01
  -1.610  0.3040E+00  0.1819E+01
  -1.600  0.3019E+00  0.1822E+01
  -1.590  0.2999E+00  0.1825E+01
  -1.580  0.2978E+00  0.1828E+01
  -1.570  0.2957E+00  0.1831E+01
  -1.560  0.2936E+00  0.1834E+01
  -1.550  0.2915E+00  0.1837E+01
  -1.540  0.2893E+00  0.1840E+01
  -1.530  0.2871E+00  0.1843E+01
  -1.520  0.2844E+00  0.1846E+01
  -1.510  0.2815E+00  0.1849E+01
  -1.500  0.2786E+00  0.1852E+01
  -1.490  0.2757E+00  0.1854E+01
  -1.480  0.2728E+00  0.1857E+01
  -1.470  0.2699E+00  0.1860E+01
  -1.460  0.2671E+00  0.1862E+01
  -1.450  0.2642E+00  0.1865E+01
  -1.440  0.2613E+00  0.1868E+01
  -1.430  0.2584E+00  0.1870E+01
  -1.420  0.2556E+00  0.1873E+01
  -1.410  0.2527E+00  0.1875E+01
  -1.400  0.2499E+00  0.1878E+01
  -1.390  0.2470E+00  0.1880E+01
  -1.380  0.2442E+00  0.1883E+01
  -1.370  0.2413E+00  0.1885E+01
  -1.360  0.2385E+00  0.1888E+01
  -1.350  0.2357E+00  0.1890E+01
  -1.340  0.2328E+00  0.1892E+01
  -1.330  0.2300E+00  0.1895E+01
  -1.320  0.2272E+00  0.1897E+01
  -1.310  0.2244E+00  0.1899E+01
  -1.300  0.2216E+00  0.1902E+01
  -1.290  0.2187E+00  0.1904E+01
  -1.280  0.2159E+00  0.1906E+01
  -1.270  0.2131E+00  0.1908E+01
  -1.260  0.2103E+00  0.1910E+01
  -1.250  0.2075E+00  0.1912E+01
  -1.240  0.2048E+00  0.1914E+01
  -1.230  0.2020E+00  0.1916E+01
  -1.220  0.1992E+00  0.1918E+01
  -1.210  0.1964E+00  0.1920E+01
  -1.200  0.1936E+00  0.1922E+01
  -1.190  0.1909E+00  0.1924E+01
  -1.180  0.1881E+00  0.1926E+01
  -1.170  0.1853E+00  0.1928E+01
  -1.160  0.1826E+00  0.1930E+01
  -1.150  0.1798E+00  0.1932E+01
  -1.140  0.1771E+00  0.1933E+01
  -1.130  0.1743E+00  0.1935E+01
  -1.120  0.1716E+00  0.1937E+01
  -1.110  0.1688E+00  0.1939E+01
  -1.100  0.1661E+00  0.1940E+01
  -1.090  0.1634E+00  0.1942E+01
  -1.080  0.1606E+00  0.1944E+01
  -1.070  0.1579E+00  0.1945E+01
  -1.060  0.1552E+00  0.1947E+01
  -1.050  0.1525E+00  0.1948E+01
  -1.040  0.1498E+00  0.1950E+01
  -1.030  0.1471E+00  0.1951E+01
  -1.020  0.1444E+00  0.1953E+01
  -1.010  0.1417E+00  0.1954E+01
  -1.000  0.1390E+00  0.1956E+01
  -0.990  0.1363E+00  0.1957E+01
  -0.980  0.1336E+00  0.1958E+01
  -0.970  0.1309E+00  0.1960E+01
  -0.960  0.1282E+00  0.1961E+01
  -0.950  0.1256E+00  0.1962E+01
  -0.940  0.1229E+00  0.1963E+01
  -0.930  0.1202E+00  0.1965E+01
  -0.920  0.1176E+00  0.1966E+01
  -0.910  0.1149E+00  0.1967E+01
  -0.900  0.1122E+00  0.1968E+01
  -0.890  0.1096E+00  0.1969E+01
  -0.880  0.1070E+00  0.1970E+01
  -0.870  0.1044E+00  0.1971E+01
  -0.860  0.1018E+00  0.1972E+01
  -0.850  0.9929E-01  0.1973E+01
  -0.840  0.9680E-01  0.1974E+01
  -0.830  0.9434E-01  0.1975E+01
  -0.820  0.9191E-01  0.1976E+01
  -0.810  0.8951E-01  0.1977E+01
  -0.800  0.8714E-01  0.1978E+01
  -0.790  0.8481E-01  0.1979E+01
  -0.780  0.8251E-01  0.1980E+01
  -0.770  0.8024E-01  0.1981E+01
  -0.760  0.7801E-01  0.1981E+01
  -0.750  0.7584E-01  0.1982E+01
  -0.740  0.7373E-01  0.1983E+01
  -0.730  0.7168E-01  0.1984E+01
  -0.720  0.6968E-01  0.1984E+01
  -0.710  0.6774E-01  0.1985E+01
  -0.700  0.6585E-01  0.1986E+01
  -0.690  0.6403E-01  0.1986E+01
  -0.680  0.6226E-01  0.1987E+01
  -0.670  0.6054E-01  0.1988E+01
  -0.660  0.5889E-01  0.1988E+01
  -0.650  0.5729E-01  0.1989E+01
  -0.640  0.5575E-01  0.1989E+01
  -0.630  0.5426E-01  0.1990E+01
  -0.620  0.5283E-01  0.1990E+01
  -0.610  0.5146E-01  0.1991E+01
  -0.600  0.5015E-01  0.1991E+01
  -0.590  0.4889E-01  0.1992E+01
  -0.580  0.4769E-01  0.1992E+01
  -0.570  0.4655E-01  0.1993E+01
  -0.560  0.4547E-01  0.1993E+01
  -0.550  0.4445E-01  0.1994E+01
  -0.540  0.4351E-01  0.1994E+01
  -0.530  0.4263E-01  0.1995E+01
  -0.520  0.4181E-01  0.1995E+01
  -0.510  0.4107E-01  0.1995E+01
  -0.500  0.4039E-01  0.1996E+01
  -0.490  0.3978E-01  0.1996E+01
  -0.480  0.3923E-01  0.1997E+01
  -0.470  0.3875E-01  0.1997E+01
  -0.460  0.3834E-01  0.1997E+01
  -0.450  0.3799E-01  0.1998E+01
  -0.440  0.3772E-01  0.1998E+01
  -0.430  0.3750E-01  0.1999E+01
  -0.420  0.3736E-01  0.1999E+01
  -0.410  0.3728E-01  0.1999E+01
  -0.400  0.3727E-01  0.2000E+01
  -0.390  0.3732E-01  0.2000E+01
  -0.380  0.3744E-01  0.2000E+01
  -0.370  0.3763E-01  0.2001E+01
  -0.360  0.3789E-01  0.2001E+01
  -0.350  0.3821E-01  0.2002E+01
  -0.340  0.3860E-01  0.2002E+01
  -0.330  0.3905E-01  0.2002E+01
  -0.320  0.3958E-01  0.2003E+01
  -0.310  0.4017E-01  0.2003E+01
  -0.300  0.4082E-01  0.2004E+01
  -0.290  0.4178E-01  0.2004E+01
  -0.280  0.4307E-01  0.2004E+01
  -0.270  0.4445E-01  0.2005E+01
  -0.260  0.4589E-01  0.2005E+01
  -0.250  0.4741E-01  0.2006E+01
  -0.240  0.4901E-01  0.2006E+01
  -0.230  0.5067E-01  0.2007E+01
  -0.220  0.5242E-01  0.2007E+01
  -0.210  0.5423E-01  0.2008E+01
  -0.200  0.5612E-01  0.2008E+01
  -0.190  0.5808E-01  0.2009E+01
  -0.180  0.6012E-01  0.2009E+01
  -0.170  0.6223E-01  0.2010E+01
  -0.160  0.6441E-01  0.2011E+01
  -0.150  0.6667E-01  0.2011E+01
  -0.140  0.6900E-01  0.2012E+01
  -0.130  0.7140E-01  0.2013E+01
  -0.120  0.7388E-01  0.2013E+01
  -0.110  0.7643E-01  0.2014E+01
  -0.100  0.7906E-01  0.2015E+01
  -0.090  0.8176E-01  0.2016E+01
  -0.080  0.8542E-01  0.2017E+01
  -0.070  0.9208E-01  0.2018E+01
  -0.060  0.9855E-01  0.2018E+01
  -0.050  0.1049E+00  0.2020E+01
  -0.040  0.1110E+00  0.2021E+01
  -0.030  0.1169E+00  0.2022E+01
  -0.020  0.1227E+00  0.2023E+01
  -0.010  0.1283E+00  0.2024E+01
  -0.000  0.1337E+00  0.2025E+01
   0.010  0.1389E+00  0.2027E+01
   0.020  0.1440E+00  0.2028E+01
   0.030  0.1488E+00  0.2030E+01
   0.040  0.1535E+00  0.2031E+01
   0.050  0.1581E+00  0.2033E+01
   0.060  0.1624E+00  0.2034E+01
   0.070  0.1669E+00  0.2036E+01
   0.080  0.1716E+00  0.2038E+01
   0.090  0.1764E+00  0.2039E+01
   0.100  0.1819E+00  0.2041E+01
   0.110  0.1892E+00  0.2043E+01
   0.120  0.1967E+00  0.2045E+01
   0.130  0.2042E+00  0.2047E+01
   0.140  0.2119E+00  0.2049E+01
   0.150  0.2197E+00  0.2051E+01
   0.160  0.2275E+00  0.2054E+01
   0.170  0.2355E+00  0.2056E+01
   0.180  0.2435E+00  0.2058E+01
   0.190  0.2517E+00  0.2061E+01
   0.200  0.2599E+00  0.2063E+01
   0.210  0.2683E+00  0.2066E+01
   0.220  0.2767E+00  0.2069E+01
   0.230  0.2853E+00  0.2071E+01
   0.240  0.2939E+00  0.2074E+01
   0.250  0.3026E+00  0.2077E+01
   0.260  0.3115E+00  0.2080E+01
   0.270  0.3204E+00  0.2084E+01
   0.280  0.3295E+00  0.2087E+01
   0.290  0.3386E+00  0.2090E+01
   0.300  0.3479E+00  0.2094E+01
   0.310  0.3572E+00  0.2097E+01
   0.320  0.3666E+00  0.2101E+01
   0.330  0.3762E+00  0.2104E+01
   0.340  0.3858E+00  0.2108E+01
   0.350  0.3956E+00  0.2112E+01
   0.360  0.4054E+00  0.2116E+01
   0.370  0.4153E+00  0.2120E+01
   0.380  0.4254E+00  0.2124E+01
   0.390  0.4355E+00  0.2129E+01
   0.400  0.4457E+00  0.2133E+01
   0.410  0.4560E+00  0.2138E+01
   0.420  0.4660E+00  0.2142E+01
   0.430  0.4757E+00  0.2147E+01
   0.440  0.4853E+00  0.2152E+01
   0.450  0.4946E+00  0.2157E+01
   0.460  0.5037E+00  0.2162E+01
   0.470  0.5126E+00  0.2167E+01
   0.480  0.5213E+00  0.2172E+01
   0.490  0.5297E+00  0.2177E+01
   0.500  0.5379E+00  0.2183E+01
   0.510  0.5459E+00  0.2188E+01
   0.520  0.5537E+00  0.2193E+01
   0.530  0.5613E+00  0.2199E+01
   0.540  0.5686E+00  0.2205E+01
   0.550  0.5757E+00  0.2210E+01
   0.560  0.5826E+00  0.2216E+01
   0.570  0.5892E+00  0.2222E+01
   0.580  0.5956E+00  0.2228E+01
   0.590  0.6019E+00  0.2234E+01
   0.600  0.6078E+00  0.2240E+01
   0.610  0.6136E+00  0.2246E+01
   0.620  0.6191E+00  0.2252E+01
   0.630  0.6245E+00  0.2259E+01
   0.640  0.6295E+00  0.2265E+01
   0.650  0.6344E+00  0.2271E+01
   0.660  0.6391E+00  0.2277E+01
   0.670  0.6435E+00  0.2284E+01
   0.680  0.6477E+00  0.2290E+01
   0.690  0.6517E+00  0.2297E+01
   0.700  0.6554E+00  0.2303E+01
   0.710  0.6590E+00  0.2310E+01
   0.720  0.6623E+00  0.2317E+01
   0.730  0.6653E+00  0.2323E+01
   0.740  0.6703E+00  0.2330E+01
   0.750  0.6755E+00  0.2337E+01
   0.760  0.6793E+00  0.2343E+01
   0.770  0.6816E+00  0.2350E+01
   0.780  0.6826E+00  0.2357E+01
   0.790  0.6821E+00  0.2364E+01
   0.800  0.6841E+00  0.2371E+01
   0.810  0.6878E+00  0.2378E+01
   0.820  0.6912E+00  0.2384E+01
   0.830  0.6944E+00  0.2391E+01
   0.840  0.6974E+00  0.2398E+01
   0.850  0.7001E+00  0.2405E+01
   0.860  0.7026E+00  0.2412E+01
   0.870  0.7049E+00  0.2419E+01
   0.880  0.7069E+00  0.2426E+01
   0.890  0.7086E+00  0.2433E+01
   0.900  0.7101E+00  0.2441E+01
   0.910  0.7114E+00  0.2448E+01
   0.920  0.7124E+00  0.2455E+01
   0.930  0.7132E+00  0.2462E+01
   0.940  0.7137E+00  0.2469E+01
   0.950  0.7150E+00  0.2476E+01
   0.960  0.7169E+00  0.2483E+01
   0.970  0.7186E+00  0.2491E+01
   0.980  0.7202E+00  0.2498E+01
   0.990  0.7216E+00  0.2505E+01
   1.000  0.7228E+00  0.2512E+01
   1.010  0.7238E+00  0.2519E+01
   1.020  0.7246E+00  0.2527E+01
   1.030  0.7253E+00  0.2534E+01
   1.040  0.7258E+00  0.2541E+01
   1.050  0.7261E+00  0.2548E+01
   1.060  0.7262E+00  0.2556E+01
   1.070  0.7261E+00  0.2563E+01
   1.080  0.7259E+00  0.2570E+01
   1.090  0.7254E+00  0.2577E+01
   1.100  0.7248E+00  0.2585E+01
   1.110  0.7240E+00  0.2592E+01
   1.120  0.7230E+00  0.2599E+01
   1.130  0.7219E+00  0.2606E+01
   1.140  0.7205E+00  0.2614E+01
   1.150  0.7190E+00  0.2621E+01
   1.160  0.7173E+00  0.2628E+01
   1.170  0.7154E+00  0.2635E+01
   1.180  0.7133E+00  0.2642E+01
   1.190  0.7111E+00  0.2649E+01
   1.200  0.7087E+00  0.2657E+01
   1.210  0.7061E+00  0.2664E+01
   1.220  0.7033E+00  0.2671E+01
   1.230  0.7003E+00  0.2678E+01
   1.240  0.6971E+00  0.2685E+01
   1.250  0.6938E+00  0.2692E+01
   1.260  0.6903E+00  0.2699E+01
   1.270  0.6866E+00  0.2705E+01
   1.280  0.6827E+00  0.2712E+01
   1.290  0.6786E+00  0.2719E+01
   1.300  0.6744E+00  0.2726E+01
   1.310  0.6699E+00  0.2733E+01
   1.320  0.6653E+00  0.2739E+01
   1.330  0.6604E+00  0.2746E+01
   1.340  0.6540E+00  0.2752E+01
   1.350  0.6474E+00  0.2759E+01
   1.360  0.6406E+00  0.2765E+01
   1.370  0.6336E+00  0.2772E+01
   1.380  0.6265E+00  0.2778E+01
   1.390  0.6191E+00  0.2784E+01
   1.400  0.6117E+00  0.2790E+01
   1.410  0.6040E+00  0.2797E+01
   1.420  0.5963E+00  0.2803E+01
   1.430  0.5887E+00  0.2808E+01
   1.440  0.5813E+00  0.2814E+01
   1.450  0.5740E+00  0.2820E+01
   1.460  0.5668E+00  0.2826E+01
   1.470  0.5599E+00  0.2831E+01
   1.480  0.5530E+00  0.2837E+01
   1.490  0.5463E+00  0.2842E+01
   1.500  0.5398E+00  0.2848E+01
   1.510  0.5334E+00  0.2853E+01
   1.520  0.5272E+00  0.2859E+01
   1.530  0.5211E+00  0.2864E+01
   1.540  0.5151E+00  0.2869E+01
   1.550  0.5093E+00  0.2874E+01
   1.560  0.5037E+00  0.2879E+01
   1.570  0.4982E+00  0.2884E+01
   1.580  0.4928E+00  0.2889E+01
   1.590  0.4876E+00  0.2894E+01
   1.600  0.4826E+00  0.2899E+01
   1.610  0.4777E+00  0.2904E+01
   1.620  0.4731E+00  0.2908E+01
   1.630  0.4696E+00  0.2913E+01
   1.640  0.4661E+00  0.2918E+01
   1.650  0.4627E+00  0.2922E+01
   1.660  0.4593E+00  0.2927E+01
   1.670  0.4559E+00  0.2932E+01
   1.680  0.4526E+00  0.2936E+01
   1.690  0.4493E+00  0.2941E+01
   1.700  0.4460E+00  0.2945E+01
   1.710  0.4427E+00  0.2950E+01
   1.720  0.4395E+00  0.2954E+01
   1.730  0.4363E+00  0.2958E+01
   1.740  0.4331E+00  0.2963E+01
   1.750  0.4300E+00  0.2967E+01
   1.760  0.4269E+00  0.2971E+01
   1.770  0.4238E+00  0.2976E+01
   1.780  0.4208E+00  0.2980E+01
   1.790  0.4177E+00  0.2984E+01
   1.800  0.4147E+00  0.2988E+01
   1.810  0.4118E+00  0.2992E+01
   1.820  0.4088E+00  0.2996E+01
   1.830  0.4059E+00  0.3000E+01
   1.840  0.4030E+00  0.3005E+01
   1.850  0.4002E+00  0.3009E+01
   1.860  0.3973E+00  0.3013E+01
   1.870  0.3945E+00  0.3017E+01
   1.880  0.3918E+00  0.3020E+01
   1.890  0.3890E+00  0.3024E+01
   1.900  0.3863E+00  0.3028E+01
   1.910  0.3836E+00  0.3032E+01
   1.920  0.3810E+00  0.3036E+01
   1.930  0.3784E+00  0.3040E+01
   1.940  0.3758E+00  0.3043E+01
   1.950  0.3732E+00  0.3047E+01
   1.960  0.3707E+00  0.3051E+01
   1.970  0.3682E+00  0.3055E+01
   1.980  0.3657E+00  0.3058E+01
   1.990  0.3632E+00  0.3062E+01
   2.000  0.3608E+00  0.3066E+01
   2.010  0.3584E+00  0.3069E+01
   2.020  0.3560E+00  0.3073E+01
   2.030  0.3537E+00  0.3076E+01
   2.040  0.3514E+00  0.3080E+01
   2.050  0.3491E+00  0.3083E+01
   2.060  0.3469E+00  0.3087E+01
   2.070  0.3446E+00  0.3090E+01
   2.080  0.3424E+00  0.3094E+01
   2.090  0.3403E+00  0.3097E+01
   2.100  0.3381E+00  0.3100E+01
   2.110  0.3360E+00  0.3104E+01
   2.120  0.3339E+00  0.3107E+01
   2.130  0.3319E+00  0.3111E+01
   2.140  0.3299E+00  0.3114E+01
   2.150  0.3279E+00  0.3117E+01
   2.160  0.3259E+00  0.3120E+01
   2.170  0.3240E+00  0.3124E+01
   2.180  0.3221E+00  0.3127E+01
   2.190  0.3202E+00  0.3130E+01
   2.200  0.3183E+00  0.3133E+01
   2.210  0.3165E+00  0.3136E+01
   2.220  0.3147E+00  0.3140E+01
   2.230  0.3129E+00  0.3143E+01
   2.240  0.3112E+00  0.3146E+01
   2.250  0.3095E+00  0.3149E+01
   2.260  0.3078E+00  0.3152E+01
   2.270  0.3062E+00  0.3155E+01
   2.280  0.3045E+00  0.3158E+01
   2.290  0.3029E+00  0.3161E+01
   2.300  0.3019E+00  0.3164E+01
   2.310  0.3010E+00  0.3167E+01
   2.320  0.3002E+00  0.3170E+01
   2.330  0.2994E+00  0.3173E+01
   2.340  0.2986E+00  0.3176E+01
   2.350  0.2978E+00  0.3179E+01
   2.360  0.2970E+00  0.3182E+01
   2.370  0.2962E+00  0.3185E+01
   2.380  0.2953E+00  0.3188E+01
   2.390  0.2945E+00  0.3191E+01
   2.400  0.2937E+00  0.3194E+01
   2.410  0.2928E+00  0.3197E+01
   2.420  0.2920E+00  0.3200E+01
   2.430  0.2912E+00  0.3203E+01
   2.440  0.2903E+00  0.3206E+01
   2.450  0.2895E+00  0.3209E+01
   2.460  0.2886E+00  0.3211E+01
   2.470  0.2878E+00  0.3214E+01
   2.480  0.2869E+00  0.3217E+01
   2.490  0.2860E+00  0.3220E+01
   2.500  0.2852E+00  0.3223E+01
   2.510  0.2843E+00  0.3226E+01
   2.520  0.2834E+00  0.3229E+01
   2.530  0.2826E+00  0.3231E+01
   2.540  0.2817E+00  0.3234E+01
   2.550  0.2808E+00  0.3237E+01
   2.560  0.2799E+00  0.3240E+01
   2.570  0.2790E+00  0.3243E+01
   2.580  0.2781E+00  0.3245E+01
   2.590  0.2773E+00  0.3248E+01
   2.600  0.2764E+00  0.3251E+01
   2.610  0.2755E+00  0.3254E+01
   2.620  0.2746E+00  0.3257E+01
   2.630  0.2737E+00  0.3259E+01
   2.640  0.2727E+00  0.3262E+01
   2.650  0.2718E+00  0.3265E+01
   2.660  0.2709E+00  0.3267E+01
   2.670  0.2700E+00  0.3270E+01
   2.680  0.2691E+00  0.3273E+01
   2.690  0.2682E+00  0.3276E+01
   2.700  0.2672E+00  0.3278E+01
   2.710  0.2663E+00  0.3281E+01
   2.720  0.2654E+00  0.3284E+01
   2.730  0.2644E+00  0.3286E+01
   2.740  0.2635E+00  0.3289E+01
   2.750  0.2626E+00  0.3291E+01
   2.760  0.2616E+00  0.3294E+01
   2.770  0.2607E+00  0.3297E+01
   2.780  0.2597E+00  0.3299E+01
   2.790  0.2588E+00  0.3302E+01
   2.800  0.2578E+00  0.3304E+01
   2.810  0.2568E+00  0.3307E+01
   2.820  0.2559E+00  0.3310E+01
   2.830  0.2549E+00  0.3312E+01
   2.840  0.2539E+00  0.3315E+01
   2.850  0.2530E+00  0.3317E+01
   2.860  0.2520E+00  0.3320E+01
   2.870  0.2510E+00  0.3322E+01
   2.880  0.2500E+00  0.3325E+01
   2.890  0.2491E+00  0.3327E+01
   2.900  0.2481E+00  0.3330E+01
   2.910  0.2472E+00  0.3332E+01
   2.920  0.2463E+00  0.3335E+01
   2.930  0.2454E+00  0.3337E+01
   2.940  0.2445E+00  0.3340E+01
   2.950  0.2436E+00  0.3342E+01
   2.960  0.2428E+00  0.3344E+01
   2.970  0.2419E+00  0.3347E+01
   2.980  0.2411E+00  0.3349E+01
   2.990  0.2403E+00  0.3352E+01
   3.000  0.2395E+00  0.3354E+01
   3.010  0.2387E+00  0.3357E+01
   3.020  0.2379E+00  0.3359E+01
   3.030  0.2371E+00  0.3361E+01
   3.040  0.2363E+00  0.3364E+01
   3.050  0.2355E+00  0.3366E+01
   3.060  0.2347E+00  0.3368E+01
   3.070  0.2339E+00  0.3371E+01
   3.080  0.2330E+00  0.3373E+01
   3.090  0.2322E+00  0.3375E+01
   3.100  0.2314E+00  0.3378E+01
   3.110  0.2306E+00  0.3380E+01
   3.120  0.2298E+00  0.3382E+01
   3.130  0.2289E+00  0.3385E+01
   3.140  0.2282E+00  0.3387E+01
   3.150  0.2275E+00  0.3389E+01
   3.160  0.2269E+00  0.3391E+01
   3.170  0.2264E+00  0.3394E+01
   3.180  0.2259E+00  0.3396E+01
   3.190  0.2256E+00  0.3398E+01
   3.200  0.2254E+00  0.3400E+01
   3.210  0.2252E+00  0.3403E+01
   3.220  0.2252E+00  0.3405E+01
   3.230  0.2252E+00  0.3407E+01
   3.240  0.2254E+00  0.3409E+01
   3.250  0.2256E+00  0.3412E+01
   3.260  0.2259E+00  0.3414E+01
   3.270  0.2263E+00  0.3416E+01
   3.280  0.2268E+00  0.3419E+01
   3.290  0.2274E+00  0.3421E+01
   3.300  0.2282E+00  0.3423E+01
   3.310  0.2290E+00  0.3425E+01
   3.320  0.2299E+00  0.3428E+01
   3.330  0.2309E+00  0.3430E+01
   3.340  0.2320E+00  0.3432E+01
   3.350  0.2332E+00  0.3435E+01
   3.360  0.2345E+00  0.3437E+01
   3.370  0.2359E+00  0.3439E+01
   3.380  0.2373E+00  0.3442E+01
   3.390  0.2389E+00  0.3444E+01
   3.400  0.2406E+00  0.3446E+01
   3.410  0.2424E+00  0.3449E+01
   3.420  0.2443E+00  0.3451E+01
   3.430  0.2463E+00  0.3454E+01
   3.440  0.2484E+00  0.3456E+01
   3.450  0.2505E+00  0.3459E+01
   3.460  0.2528E+00  0.3461E+01
   3.470  0.2564E+00  0.3464E+01
   3.480  0.2655E+00  0.3466E+01
   3.490  0.2746E+00  0.3469E+01
   3.500  0.2837E+00  0.3472E+01
   3.510  0.2928E+00  0.3475E+01
   3.520  0.3018E+00  0.3478E+01
   3.530  0.3108E+00  0.3481E+01
   3.540  0.3197E+00  0.3484E+01
   3.550  0.3287E+00  0.3487E+01
   3.560  0.3375E+00  0.3490E+01
   3.570  0.3464E+00  0.3494E+01
   3.580  0.3552E+00  0.3497E+01
   3.590  0.3640E+00  0.3501E+01
   3.600  0.3728E+00  0.3505E+01
   3.610  0.3816E+00  0.3508E+01
   3.620  0.3903E+00  0.3512E+01
   3.630  0.3989E+00  0.3516E+01
   3.640  0.4076E+00  0.3520E+01
   3.650  0.4162E+00  0.3524E+01
   3.660  0.4248E+00  0.3529E+01
   3.670  0.4333E+00  0.3533E+01
   3.680  0.4419E+00  0.3537E+01
   3.690  0.4504E+00  0.3542E+01
   3.700  0.4588E+00  0.3546E+01
   3.710  0.4672E+00  0.3551E+01
   3.720  0.4756E+00  0.3556E+01
   3.730  0.4840E+00  0.3560E+01
   3.740  0.4924E+00  0.3565E+01
   3.750  0.5007E+00  0.3570E+01
   3.760  0.5089E+00  0.3575E+01
   3.770  0.5172E+00  0.3580E+01
   3.780  0.5254E+00  0.3586E+01
   3.790  0.5336E+00  0.3591E+01
   3.800  0.5417E+00  0.3596E+01
   3.810  0.5499E+00  0.3602E+01
   3.820  0.5579E+00  0.3607E+01
   3.830  0.5660E+00  0.3613E+01
   3.840  0.5740E+00  0.3619E+01
   3.850  0.5789E+00  0.3624E+01
   3.860  0.5786E+00  0.3630E+01
   3.870  0.5783E+00  0.3636E+01
   3.880  0.5781E+00  0.3642E+01
   3.890  0.5779E+00  0.3648E+01
   3.900  0.5778E+00  0.3653E+01
   3.910  0.5777E+00  0.3659E+01
   3.920  0.5776E+00  0.3665E+01
   3.930  0.5776E+00  0.3671E+01
   3.940  0.5777E+00  0.3676E+01
   3.950  0.5778E+00  0.3682E+01
   3.960  0.5779E+00  0.3688E+01
   3.970  0.5781E+00  0.3694E+01
   3.980  0.5783E+00  0.3700E+01
   3.990  0.5786E+00  0.3705E+01
   4.000  0.5789E+00  0.3711E+01
   4.010  0.5792E+00  0.3717E+01
   4.020  0.5796E+00  0.3723E+01
   4.030  0.5800E+00  0.3729E+01
   4.040  0.5805E+00  0.3734E+01
   4.050  0.5809E+00  0.3740E+01
   4.060  0.5813E+00  0.3746E+01
   4.070  0.5817E+00  0.3752E+01
   4.080  0.5821E+00  0.3758E+01
   4.090  0.5824E+00  0.3763E+01
   4.100  0.5828E+00  0.3769E+01
   4.110  0.5832E+00  0.3775E+01
   4.120  0.5835E+00  0.3781E+01
   4.130  0.5838E+00  0.3787E+01
   4.140  0.5842E+00  0.3793E+01
   4.150  0.5845E+00  0.3798E+01
   4.160  0.5848E+00  0.3804E+01
   4.170  0.5851E+00  0.3810E+01
   4.180  0.5854E+00  0.3816E+01
   4.190  0.5856E+00  0.3822E+01
   4.200  0.5859E+00  0.3828E+01
   4.210  0.5862E+00  0.3834E+01
   4.220  0.5864E+00  0.3839E+01
   4.230  0.5866E+00  0.3845E+01
   4.240  0.5869E+00  0.3851E+01
   4.250  0.5872E+00  0.3857E+01
   4.260  0.5875E+00  0.3863E+01
   4.270  0.5879E+00  0.3869E+01
   4.280  0.5883E+00  0.3875E+01
   4.290  0.5887E+00  0.3881E+01
   4.300  0.5890E+00  0.3886E+01
   4.310  0.5893E+00  0.3892E+01
   4.320  0.5897E+00  0.3898E+01
   4.330  0.5900E+00  0.3904E+01
   4.340  0.5903E+00  0.3910E+01
   4.350  0.5906E+00  0.3916E+01
   4.360  0.5908E+00  0.3922E+01
   4.370  0.5913E+00  0.3928E+01
   4.380  0.5919E+00  0.3934E+01
   4.390  0.5925E+00  0.3940E+01
   4.400  0.5931E+00  0.3945E+01
   4.410  0.5938E+00  0.3951E+01
   4.420  0.5944E+00  0.3957E+01
   4.430  0.5951E+00  0.3963E+01
   4.440  0.5958E+00  0.3969E+01
   4.450  0.5965E+00  0.3975E+01
   4.460  0.5972E+00  0.3981E+01
   4.470  0.5979E+00  0.3987E+01
   4.480  0.5987E+00  0.3993E+01
   4.490  0.5995E+00  0.3999E+01
   4.500  0.6003E+00  0.4005E+01
   4.510  0.6011E+00  0.4011E+01
   4.520  0.6019E+00  0.4017E+01
   4.530  0.6028E+00  0.4023E+01
   4.540  0.6037E+00  0.4029E+01
   4.550  0.6045E+00  0.4035E+01
   4.560  0.6055E+00  0.4041E+01
   4.570  0.6064E+00  0.4047E+01
   4.580  0.6073E+00  0.4053E+01
   4.590  0.6083E+00  0.4060E+01
   4.600  0.6092E+00  0.4066E+01
   4.610  0.6101E+00  0.4072E+01
   4.620  0.6110E+00  0.4078E+01
   4.630  0.6120E+00  0.4084E+01
   4.640  0.6129E+00  0.4090E+01
   4.650  0.6138E+00  0.4096E+01
   4.660  0.6147E+00  0.4102E+01
   4.670  0.6156E+00  0.4108E+01
   4.680  0.6166E+00  0.4115E+01
   4.690  0.6175E+00  0.4121E+01
   4.700  0.6184E+00  0.4127E+01
   4.710  0.6193E+00  0.4133E+01
   4.720  0.6202E+00  0.4139E+01
   4.730  0.6211E+00  0.4146E+01
   4.740  0.6220E+00  0.4152E+01
   4.750  0.6229E+00  0.4158E+01
   4.760  0.6238E+00  0.4164E+01
   4.770  0.6247E+00  0.4171E+01
   4.780  0.6256E+00  0.4177E+01
   4.790  0.6264E+00  0.4183E+01
   4.800  0.6273E+00  0.4189E+01
   4.810  0.6282E+00  0.4196E+01
   4.820  0.6291E+00  0.4202E+01
   4.830  0.6300E+00  0.4208E+01
   4.840  0.6308E+00  0.4214E+01
   4.850  0.6317E+00  0.4221E+01
   4.860  0.8175E+00  0.4227E+01
   4.870  0.1022E+01  0.4237E+01
   4.880  0.7837E+00  0.4246E+01
   4.890  0.7207E+00  0.4254E+01
   4.900  0.7197E+00  0.4261E+01
   4.910  0.7187E+00  0.4268E+01
   4.920  0.7177E+00  0.4275E+01
   4.930  0.7166E+00  0.4282E+01
   4.940  0.7155E+00  0.4290E+01
   4.950  0.7143E+00  0.4297E+01
   4.960  0.7131E+00  0.4304E+01
   4.970  0.7119E+00  0.4311E+01
   4.980  0.7107E+00  0.4318E+01
   4.990  0.7094E+00  0.4325E+01
   5.000  0.7080E+00  0.4332E+01
   5.010  0.7067E+00  0.4339E+01
   5.020  0.7053E+00  0.4346E+01
   5.030  0.7039E+00  0.4353E+01
   5.040  0.7024E+00  0.4360E+01
   5.050  0.7009E+00  0.4368E+01
   5.060  0.6994E+00  0.4375E+01
   5.070  0.6978E+00  0.4381E+01
   5.080  0.6962E+00  0.4388E+01
   5.090  0.6946E+00  0.4395E+01
   5.100  0.6929E+00  0.4402E+01
   5.110  0.6912E+00  0.4409E+01
   5.120  0.6895E+00  0.4416E+01
   5.130  0.6877E+00  0.4423E+01
   5.140  0.6859E+00  0.4430E+01
   5.150  0.6848E+00  0.4437E+01
   5.160  0.6840E+00  0.4444E+01
   5.170  0.6832E+00  0.4450E+01
   5.180  0.6825E+00  0.4457E+01
   5.190  0.6820E+00  0.4464E+01
   5.200  0.6816E+00  0.4471E+01
   5.210  0.6812E+00  0.4478E+01
   5.220  0.6810E+00  0.4485E+01
   5.230  0.6809E+00  0.4491E+01
   5.240  0.6809E+00  0.4498E+01
   5.250  0.6810E+00  0.4505E+01
   5.260  0.6812E+00  0.4512E+01
   5.270  0.6816E+00  0.4519E+01
   5.280  0.6820E+00  0.4525E+01
   5.290  0.6824E+00  0.4532E+01
   5.300  0.6830E+00  0.4539E+01
   5.310  0.6835E+00  0.4546E+01
   5.320  0.6842E+00  0.4553E+01
   5.330  0.6849E+00  0.4560E+01
   5.340  0.6857E+00  0.4566E+01
   5.350  0.6865E+00  0.4573E+01
   5.360  0.6875E+00  0.4580E+01
   5.370  0.6885E+00  0.4587E+01
   5.380  0.6895E+00  0.4594E+01
   5.390  0.6906E+00  0.4601E+01
   5.400  0.6918E+00  0.4608E+01
   5.410  0.6931E+00  0.4615E+01
   5.420  0.6944E+00  0.4622E+01
   5.430  0.6958E+00  0.4629E+01
   5.440  0.6972E+00  0.4636E+01
   5.450  0.6987E+00  0.4643E+01
   5.460  0.7003E+00  0.4650E+01
   5.470  0.7019E+00  0.4657E+01
   5.480  0.7036E+00  0.4664E+01
   5.490  0.7054E+00  0.4671E+01
   5.500  0.7072E+00  0.4678E+01
   5.510  0.7091E+00  0.4685E+01
   5.520  0.7111E+00  0.4692E+01
   5.530  0.7131E+00  0.4699E+01
   5.540  0.7152E+00  0.4706E+01
   5.550  0.7173E+00  0.4713E+01
   5.560  0.7195E+00  0.4720E+01
   5.570  0.7218E+00  0.4728E+01
   5.580  0.7241E+00  0.4735E+01
   5.590  0.7265E+00  0.4742E+01
   5.600  0.7290E+00  0.4749E+01
   5.610  0.7315E+00  0.4757E+01
   5.620  0.7337E+00  0.4764E+01
   5.630  0.7340E+00  0.4771E+01
   5.640  0.7332E+00  0.4779E+01
   5.650  0.7311E+00  0.4786E+01
   5.660  0.7279E+00  0.4793E+01
   5.670  0.7235E+00  0.4801E+01
   5.680  0.7178E+00  0.4808E+01
   5.690  0.7125E+00  0.4815E+01
   5.700  0.7157E+00  0.4822E+01
   5.710  0.7189E+00  0.4829E+01
   5.720  0.7222E+00  0.4836E+01
   5.730  0.7256E+00  0.4844E+01
   5.740  0.7290E+00  0.4851E+01
   5.750  0.7325E+00  0.4858E+01
   5.760  0.7362E+00  0.4866E+01
   5.770  0.7417E+00  0.4873E+01
   5.780  0.7486E+00  0.4880E+01
   5.790  0.7558E+00  0.4888E+01
   5.800  0.7630E+00  0.4896E+01
   5.810  0.7704E+00  0.4903E+01
   5.820  0.7779E+00  0.4911E+01
   5.830  0.7856E+00  0.4919E+01
   5.840  0.7933E+00  0.4927E+01
   5.850  0.8012E+00  0.4935E+01
   5.860  0.8092E+00  0.4943E+01
   5.870  0.8173E+00  0.4951E+01
   5.880  0.8256E+00  0.4959E+01
   5.890  0.8339E+00  0.4967E+01
   5.900  0.8424E+00  0.4976E+01
   5.910  0.8510E+00  0.4984E+01
   5.920  0.8597E+00  0.4993E+01
   5.930  0.8685E+00  0.5001E+01
   5.940  0.8775E+00  0.5010E+01
   5.950  0.8866E+00  0.5019E+01
   5.960  0.8957E+00  0.5028E+01
   5.970  0.9051E+00  0.5037E+01
   5.980  0.9145E+00  0.5046E+01
   5.990  0.9240E+00  0.5055E+01
   6.000  0.9337E+00  0.5064E+01
   6.010  0.9435E+00  0.5074E+01
   6.020  0.9534E+00  0.5083E+01
   6.030  0.9634E+00  0.5093E+01
   6.040  0.9736E+00  0.5103E+01
   6.050  0.9838E+00  0.5112E+01
   6.060  0.9942E+00  0.5122E+01
   6.070  0.1005E+01  0.5132E+01
   6.080  0.1015E+01  0.5142E+01
   6.090  0.1026E+01  0.5153E+01
   6.100  0.1037E+01  0.5163E+01
   6.110  0.1048E+01  0.5173E+01
   6.120  0.1339E+01  0.5185E+01
   6.130  0.1027E+01  0.5197E+01
   6.140  0.1017E+01  0.5207E+01
   6.150  0.1007E+01  0.5217E+01
   6.160  0.9972E+00  0.5227E+01
   6.170  0.9883E+00  0.5237E+01
   6.180  0.9800E+00  0.5247E+01
   6.190  0.9722E+00  0.5257E+01
   6.200  0.9649E+00  0.5266E+01
   6.210  0.9582E+00  0.5276E+01
   6.220  0.9521E+00  0.5285E+01
   6.230  0.9465E+00  0.5295E+01
   6.240  0.9414E+00  0.5304E+01
   6.250  0.9369E+00  0.5314E+01
   6.260  0.9330E+00  0.5323E+01
   6.270  0.9296E+00  0.5332E+01
   6.280  0.9267E+00  0.5342E+01
   6.290  0.9243E+00  0.5351E+01
   6.300  0.9220E+00  0.5360E+01
   6.310  0.9198E+00  0.5369E+01
   6.320  0.9177E+00  0.5379E+01
   6.330  0.9157E+00  0.5388E+01
   6.340  0.9138E+00  0.5397E+01
   6.350  0.9119E+00  0.5406E+01
   6.360  0.9101E+00  0.5415E+01
   6.370  0.9085E+00  0.5424E+01
   6.380  0.9069E+00  0.5433E+01
   6.390  0.9054E+00  0.5442E+01
   6.400  0.9040E+00  0.5451E+01
   6.410  0.9027E+00  0.5461E+01
   6.420  0.9015E+00  0.5470E+01
   6.430  0.9003E+00  0.5479E+01
   6.440  0.8993E+00  0.5488E+01
   6.450  0.8983E+00  0.5497E+01
   6.460  0.8974E+00  0.5505E+01
   6.470  0.8966E+00  0.5514E+01
   6.480  0.8960E+00  0.5523E+01
   6.490  0.8959E+00  0.5532E+01
   6.500  0.8999E+00  0.5541E+01
   6.510  0.9031E+00  0.5550E+01
   6.520  0.9055E+00  0.5559E+01
   6.530  0.9071E+00  0.5568E+01
   6.540  0.9081E+00  0.5578E+01
   6.550  0.9083E+00  0.5587E+01
   6.560  0.9078E+00  0.5596E+01
   6.570  0.9064E+00  0.5605E+01
   6.580  0.9043E+00  0.5614E+01
   6.590  0.9014E+00  0.5623E+01
   6.600  0.8978E+00  0.5632E+01
   6.610  0.8933E+00  0.5641E+01
   6.620  0.8881E+00  0.5650E+01
   6.630  0.8820E+00  0.5659E+01
   6.640  0.8751E+00  0.5667E+01
   6.650  0.8673E+00  0.5676E+01
   6.660  0.8586E+00  0.5685E+01
   6.670  0.8495E+00  0.5693E+01
   6.680  0.8491E+00  0.5702E+01
   6.690  0.8487E+00  0.5710E+01
   6.700  0.8483E+00  0.5719E+01
   6.710  0.8479E+00  0.5727E+01
   6.720  0.8474E+00  0.5736E+01
   6.730  0.8475E+00  0.5744E+01
   6.740  0.8478E+00  0.5753E+01
   6.750  0.8480E+00  0.5761E+01
   6.760  0.8482E+00  0.5770E+01
   6.770  0.8483E+00  0.5778E+01
   6.780  0.8484E+00  0.5787E+01
   6.790  0.8484E+00  0.5795E+01
   6.800  0.8484E+00  0.5804E+01
   6.810  0.8484E+00  0.5812E+01
   6.820  0.8483E+00  0.5821E+01
   6.830  0.8482E+00  0.5829E+01
   6.840  0.8481E+00  0.5837E+01
   6.850  0.8479E+00  0.5846E+01
   6.860  0.8477E+00  0.5854E+01
   6.870  0.8474E+00  0.5863E+01
   6.880  0.8471E+00  0.5871E+01
   6.890  0.8468E+00  0.5880E+01
   6.900  0.8464E+00  0.5888E+01
   6.910  0.8460E+00  0.5897E+01
   6.920  0.8455E+00  0.5905E+01
   6.930  0.8450E+00  0.5914E+01
   6.940  0.8445E+00  0.5922E+01
   6.950  0.8439E+00  0.5931E+01
   6.960  0.8433E+00  0.5939E+01
   6.970  0.8427E+00  0.5947E+01
   6.980  0.8420E+00  0.5956E+01
   6.990  0.8413E+00  0.5964E+01
   7.000  0.8405E+00  0.5973E+01
   7.010  0.8397E+00  0.5981E+01
   7.020  0.8388E+00  0.5989E+01
   7.030  0.8380E+00  0.5998E+01
   7.040  0.8370E+00  0.6006E+01
   7.050  0.8361E+00  0.6015E+01
   7.060  0.8351E+00  0.6023E+01
   7.070  0.8334E+00  0.6031E+01
   7.080  0.8307E+00  0.6040E+01
   7.090  0.8282E+00  0.6048E+01
   7.100  0.8278E+00  0.6056E+01
   7.110  0.8274E+00  0.6064E+01
   7.120  0.8271E+00  0.6073E+01
   7.130  0.8267E+00  0.6081E+01
   7.140  0.8264E+00  0.6089E+01
   7.150  0.8261E+00  0.6098E+01
   7.160  0.8258E+00  0.6106E+01
   7.170  0.8255E+00  0.6114E+01
   7.180  0.8253E+00  0.6122E+01
   7.190  0.8250E+00  0.6131E+01
   7.200  0.8248E+00  0.6139E+01
   7.210  0.8246E+00  0.6147E+01
   7.220  0.8244E+00  0.6155E+01
   7.230  0.8242E+00  0.6164E+01
   7.240  0.8240E+00  0.6172E+01
   7.250  0.8278E+00  0.6180E+01
   7.260  0.8358E+00  0.6188E+01
   7.270  0.8433E+00  0.6197E+01
   7.280  0.8504E+00  0.6205E+01
   7.290  0.8571E+00  0.6214E+01
   7.300  0.8633E+00  0.6222E+01
   7.310  0.8691E+00  0.6231E+01
   7.320  0.8744E+00  0.6240E+01
   7.330  0.8793E+00  0.6249E+01
   7.340  0.8838E+00  0.6257E+01
   7.350  0.8878E+00  0.6266E+01
   7.360  0.8913E+00  0.6275E+01
   7.370  0.8945E+00  0.6284E+01
   7.380  0.8971E+00  0.6293E+01
   7.390  0.8994E+00  0.6302E+01
   7.400  0.9012E+00  0.6311E+01
   7.410  0.9025E+00  0.6320E+01
   7.420  0.9034E+00  0.6329E+01
   7.430  0.9039E+00  0.6338E+01
   7.440  0.9039E+00  0.6347E+01
   7.450  0.9035E+00  0.6356E+01
   7.460  0.9026E+00  0.6365E+01
   7.470  0.9012E+00  0.6374E+01
   7.480  0.8995E+00  0.6383E+01
   7.490  0.8975E+00  0.6392E+01
   7.500  0.8952E+00  0.6401E+01
   7.510  0.8927E+00  0.6410E+01
   7.520  0.8898E+00  0.6419E+01
   7.530  0.8867E+00  0.6428E+01
   7.540  0.8833E+00  0.6437E+01
   7.550  0.8796E+00  0.6446E+01
   7.560  0.8756E+00  0.6454E+01
   7.570  0.8713E+00  0.6463E+01
   7.580  0.8668E+00  0.6472E+01
   7.590  0.8619E+00  0.6480E+01
   7.600  0.8568E+00  0.6489E+01
   7.610  0.8514E+00  0.6497E+01
   7.620  0.8457E+00  0.6506E+01
   7.630  0.8426E+00  0.6514E+01
   7.640  0.8405E+00  0.6523E+01
   7.650  0.8383E+00  0.6531E+01
   7.660  0.8360E+00  0.6540E+01
   7.670  0.8338E+00  0.6548E+01
   7.680  0.8317E+00  0.6556E+01
   7.690  0.8298E+00  0.6565E+01
   7.700  0.8280E+00  0.6573E+01
   7.710  0.8262E+00  0.6581E+01
   7.720  0.8247E+00  0.6589E+01
   7.730  0.8233E+00  0.6598E+01
   7.740  0.8221E+00  0.6606E+01
   7.750  0.8209E+00  0.6614E+01
   7.760  0.8198E+00  0.6622E+01
   7.770  0.8187E+00  0.6630E+01
   7.780  0.8175E+00  0.6639E+01
   7.790  0.8163E+00  0.6647E+01
   7.800  0.8151E+00  0.6655E+01
   7.810  0.8139E+00  0.6663E+01
   7.820  0.8127E+00  0.6671E+01
   7.830  0.8115E+00  0.6679E+01
   7.840  0.8102E+00  0.6687E+01
   7.850  0.8090E+00  0.6696E+01
   7.860  0.8077E+00  0.6704E+01
   7.870  0.8064E+00  0.6712E+01
   7.880  0.8051E+00  0.6720E+01
   7.890  0.8038E+00  0.6728E+01
   7.900  0.8025E+00  0.6736E+01
   7.910  0.8012E+00  0.6744E+01
   7.920  0.7999E+00  0.6752E+01
   7.930  0.7985E+00  0.6760E+01
   7.940  0.7972E+00  0.6768E+01
   7.950  0.7958E+00  0.6776E+01
   7.960  0.7944E+00  0.6784E+01
   7.970  0.7931E+00  0.6792E+01
   7.980  0.7917E+00  0.6800E+01
   7.990  0.7903E+00  0.6808E+01
   8.000  0.7888E+00  0.6815E+01
   8.010  0.7874E+00  0.6823E+01
   8.020  0.7860E+00  0.6831E+01
   8.030  0.7845E+00  0.6839E+01
   8.040  0.7831E+00  0.6847E+01
   8.050  0.7816E+00  0.6855E+01
   8.060  0.7802E+00  0.6863E+01
   8.070  0.7787E+00  0.6870E+01
   8.080  0.7772E+00  0.6878E+01
   8.090  0.7757E+00  0.6886E+01
   8.100  0.7741E+00  0.6894E+01
   8.110  0.7726E+00  0.6901E+01
   8.120  0.7711E+00  0.6909E+01
   8.130  0.7695E+00  0.6917E+01
   8.140  0.7680E+00  0.6924E+01
   8.150  0.7664E+00  0.6932E+01
   8.160  0.7648E+00  0.6940E+01
   8.170  0.7632E+00  0.6947E+01
   8.180  0.7616E+00  0.6955E+01
   8.190  0.7600E+00  0.6963E+01
   8.200  0.7584E+00  0.6970E+01
   8.210  0.7568E+00  0.6978E+01
   8.220  0.7551E+00  0.6985E+01
   8.230  0.7535E+00  0.6993E+01
   8.240  0.7518E+00  0.7000E+01
   8.250  0.7501E+00  0.7008E+01
   8.260  0.7485E+00  0.7015E+01
   8.270  0.7483E+00  0.7023E+01
   8.280  0.7512E+00  0.7030E+01
   8.290  0.7540E+00  0.7038E+01
   8.300  0.7566E+00  0.7046E+01
   8.310  0.7590E+00  0.7053E+01
   8.320  0.7612E+00  0.7061E+01
   8.330  0.7632E+00  0.7068E+01
   8.340  0.7650E+00  0.7076E+01
   8.350  0.7665E+00  0.7084E+01
   8.360  0.7679E+00  0.7091E+01
   8.370  0.7691E+00  0.7099E+01
   8.380  0.7700E+00  0.7107E+01
   8.390  0.7708E+00  0.7114E+01
   8.400  0.7713E+00  0.7122E+01
   8.410  0.7717E+00  0.7130E+01
   8.420  0.7718E+00  0.7138E+01
   8.430  0.7718E+00  0.7145E+01
   8.440  0.7715E+00  0.7153E+01
   8.450  0.7711E+00  0.7161E+01
   8.460  0.7704E+00  0.7168E+01
   8.470  0.7695E+00  0.7176E+01
   8.480  0.7681E+00  0.7184E+01
   8.490  0.7654E+00  0.7191E+01
   8.500  0.7625E+00  0.7199E+01
   8.510  0.7596E+00  0.7207E+01
   8.520  0.7566E+00  0.7214E+01
   8.530  0.7535E+00  0.7222E+01
   8.540  0.7522E+00  0.7229E+01
   8.550  0.7515E+00  0.7237E+01
   8.560  0.7505E+00  0.7244E+01
   8.570  0.7491E+00  0.7252E+01
   8.580  0.7474E+00  0.7259E+01
   8.590  0.7454E+00  0.7267E+01
   8.600  0.7431E+00  0.7274E+01
   8.610  0.7405E+00  0.7282E+01
   8.620  0.7376E+00  0.7289E+01
   8.630  0.7344E+00  0.7296E+01
   8.640  0.7308E+00  0.7304E+01
   8.650  0.7269E+00  0.7311E+01
   8.660  0.7228E+00  0.7318E+01
   8.670  0.7183E+00  0.7325E+01
   8.680  0.7135E+00  0.7333E+01
   8.690  0.7083E+00  0.7340E+01
   8.700  0.7029E+00  0.7347E+01
   8.710  0.6972E+00  0.7354E+01
   8.720  0.6911E+00  0.7361E+01
   8.730  0.6847E+00  0.7368E+01
   8.740  0.6780E+00  0.7374E+01
   8.750  0.6710E+00  0.7381E+01
   8.760  0.6636E+00  0.7388E+01
   8.770  0.6559E+00  0.7394E+01
   8.780  0.6479E+00  0.7401E+01
   8.790  0.6395E+00  0.7407E+01
   8.800  0.6308E+00  0.7414E+01
   8.810  0.6218E+00  0.7420E+01
   8.820  0.6125E+00  0.7426E+01
   8.830  0.6029E+00  0.7432E+01
   8.840  0.5930E+00  0.7438E+01
   8.850  0.5829E+00  0.7444E+01
   8.860  0.5725E+00  0.7450E+01
   8.870  0.5618E+00  0.7456E+01
   8.880  0.5536E+00  0.7461E+01
   8.890  0.5467E+00  0.7467E+01
   8.900  0.5397E+00  0.7472E+01
   8.910  0.5327E+00  0.7477E+01
   8.920  0.5258E+00  0.7483E+01
   8.930  0.5191E+00  0.7488E+01
   8.940  0.5126E+00  0.7493E+01
   8.950  0.5063E+00  0.7498E+01
   8.960  0.5002E+00  0.7503E+01
   8.970  0.4943E+00  0.7508E+01
   8.980  0.4885E+00  0.7513E+01
   8.990  0.4830E+00  0.7518E+01
   9.000  0.4776E+00  0.7523E+01
   9.010  0.4725E+00  0.7528E+01
   9.020  0.4675E+00  0.7532E+01
   9.030  0.4627E+00  0.7537E+01
   9.040  0.4581E+00  0.7542E+01
   9.050  0.4537E+00  0.7546E+01
   9.060  0.4495E+00  0.7551E+01
   9.070  0.4455E+00  0.7555E+01
   9.080  0.4417E+00  0.7560E+01
   9.090  0.4380E+00  0.7564E+01
   9.100  0.4346E+00  0.7568E+01
   9.110  0.4313E+00  0.7573E+01
   9.120  0.4282E+00  0.7577E+01
   9.130  0.4254E+00  0.7581E+01
   9.140  0.4227E+00  0.7585E+01
   9.150  0.4202E+00  0.7590E+01
   9.160  0.4179E+00  0.7594E+01
   9.170  0.4156E+00  0.7598E+01
   9.180  0.4133E+00  0.7602E+01
   9.190  0.4111E+00  0.7606E+01
   9.200  0.4088E+00  0.7610E+01
   9.210  0.4066E+00  0.7614E+01
   9.220  0.4047E+00  0.7618E+01
   9.230  0.4030E+00  0.7623E+01
   9.240  0.4013E+00  0.7627E+01
   9.250  0.3996E+00  0.7631E+01
   9.260  0.3978E+00  0.7635E+01
   9.270  0.3961E+00  0.7638E+01
   9.280  0.3944E+00  0.7642E+01
   9.290  0.3926E+00  0.7646E+01
   9.300  0.3908E+00  0.7650E+01
   9.310  0.3891E+00  0.7654E+01
   9.320  0.3873E+00  0.7658E+01
   9.330  0.3855E+00  0.7662E+01
   9.340  0.3837E+00  0.7666E+01
   9.350  0.3819E+00  0.7670E+01
   9.360  0.3801E+00  0.7673E+01
   9.370  0.3783E+00  0.7677E+01
   9.380  0.3765E+00  0.7681E+01
   9.390  0.3747E+00  0.7685E+01
   9.400  0.3728E+00  0.7688E+01
   9.410  0.3710E+00  0.7692E+01
   9.420  0.3692E+00  0.7696E+01
   9.430  0.3673E+00  0.7700E+01
   9.440  0.3654E+00  0.7703E+01
   9.450  0.3636E+00  0.7707E+01
   9.460  0.3617E+00  0.7711E+01
   9.470  0.3598E+00  0.7714E+01
   9.480  0.3579E+00  0.7718E+01
   9.490  0.3560E+00  0.7721E+01
   9.500  0.3541E+00  0.7725E+01
   9.510  0.3522E+00  0.7728E+01
   9.520  0.3503E+00  0.7732E+01
   9.530  0.3484E+00  0.7735E+01
   9.540  0.3466E+00  0.7739E+01
   9.550  0.3447E+00  0.7742E+01
   9.560  0.3427E+00  0.7746E+01
   9.570  0.3407E+00  0.7749E+01
   9.580  0.3386E+00  0.7753E+01
   9.590  0.3365E+00  0.7756E+01
   9.600  0.3344E+00  0.7759E+01
   9.610  0.3322E+00  0.7763E+01
   9.620  0.3299E+00  0.7766E+01
   9.630  0.3276E+00  0.7769E+01
   9.640  0.3252E+00  0.7772E+01
   9.650  0.3228E+00  0.7776E+01
   9.660  0.3203E+00  0.7779E+01
   9.670  0.3178E+00  0.7782E+01
   9.680  0.3152E+00  0.7785E+01
   9.690  0.3125E+00  0.7788E+01
   9.700  0.3098E+00  0.7792E+01
   9.710  0.3071E+00  0.7795E+01
   9.720  0.3043E+00  0.7798E+01
   9.730  0.3014E+00  0.7801E+01
   9.740  0.2985E+00  0.7804E+01
   9.750  0.2956E+00  0.7807E+01
   9.760  0.2926E+00  0.7810E+01
   9.770  0.2895E+00  0.7813E+01
   9.780  0.2842E+00  0.7815E+01
   9.790  0.2773E+00  0.7818E+01
   9.800  0.2708E+00  0.7821E+01
   9.810  0.2649E+00  0.7824E+01
   9.820  0.2594E+00  0.7826E+01
   9.830  0.2544E+00  0.7829E+01
   9.840  0.2499E+00  0.7831E+01
   9.850  0.2459E+00  0.7834E+01
   9.860  0.2423E+00  0.7836E+01
   9.870  0.2393E+00  0.7839E+01
   9.880  0.2364E+00  0.7841E+01
   9.890  0.2336E+00  0.7843E+01
   9.900  0.2309E+00  0.7846E+01
   9.910  0.2281E+00  0.7848E+01
   9.920  0.2261E+00  0.7850E+01
   9.930  0.2242E+00  0.7853E+01
   9.940  0.2224E+00  0.7855E+01
   9.950  0.2205E+00  0.7857E+01
   9.960  0.2187E+00  0.7859E+01
   9.970  0.2170E+00  0.7861E+01
   9.980  0.2152E+00  0.7864E+01
   9.990  0.2135E+00  0.7866E+01
  10.000  0.2119E+00  0.7868E+01
